TimeStamp,Delta_TP9,Delta_AF7,Delta_AF8,Delta_TP10,Theta_TP9,Theta_AF7,Theta_AF8,Theta_TP10,Alpha_TP9,Alpha_AF7,Alpha_AF8,Alpha_TP10,Beta_TP9,Beta_AF7,Beta_AF8,Beta_TP10,Gamma_TP9,Gamma_AF7,Gamma_AF8,Gamma_TP10,RAW_TP9,RAW_AF7,RAW_AF8,RAW_TP10,AUX_RIGHT,Accelerometer_X,Accelerometer_Y,Accelerometer_Z,Gyro_X,Gyro_Y,Gyro_Z,HeadBandOn,HSI_TP9,HSI_AF7,HSI_AF8,HSI_TP10,Battery,Elements
2020-01-09 00:01:17.440,0,0,0,0,0,0,0,0,0,0,0,0,0,0,0,0,0,0,0,0,805.4578754578755,810.2930402930403,813.5164835164835,796.996336996337,566.5201465201466,-0.404541,0.097595,0.918030,4.508514,-3.603821,-1.742096,0,4,4,4,4,85.000000
2020-01-09 00:01:17.440,0,0,0,0,0,0,0,0,0,0,0,0,0,0,0,0,0,0,0,0,817.5457875457876,807.4725274725275,815.1282051282052,814.3223443223443,1087.912087912088,-0.404541,0.097595,0.918030,4.508514,-3.603821,-1.742096,0,4,4,4,4,85.000000
2020-01-09 00:01:17.440,0,0,0,0,0,0,0,0,0,0,0,0,0,0,0,0,0,0,0,0,813.1135531135532,806.6666666666667,813.919413919414,815.5311355311355,1371.575091575092,-0.404541,0.097595,0.918030,4.508514,-3.603821,-1.742096,0,4,4,4,4,85.000000
2020-01-09 00:01:17.441,0,0,0,0,0,0,0,0,0,0,0,0,0,0,0,0,0,0,0,0,794.981684981685,807.4725274725275,809.0842490842491,794.981684981685,788.5347985347986,-0.404541,0.097595,0.918030,4.508514,-3.603821,-1.742096,0,4,4,4,4,85.000000
2020-01-09 00:01:17.441,0,0,0,0,0,0,0,0,0,0,0,0,0,0,0,0,0,0,0,0,789.7435897435897,808.6813186813187,807.0695970695971,792.5641025641025,400.1098901098901,-0.404541,0.097595,0.918030,4.508514,-3.603821,-1.742096,0,4,4,4,4,85.000000
2020-01-09 00:01:17.441,0,0,0,0,0,0,0,0,0,0,0,0,0,0,0,0,0,0,0,0,803.8461538461539,808.6813186813187,808.6813186813187,812.3076923076924,825.2014652014652,-0.404541,0.097595,0.918030,4.508514,-3.603821,-1.742096,0,4,4,4,4,85.000000
2020-01-09 00:01:17.441,0,0,0,0,0,0,0,0,0,0,0,0,0,0,0,0,0,0,0,0,810.2930402930403,810.2930402930403,809.4871794871796,817.5457875457876,1243.443223443224,-0.404541,0.097595,0.918030,4.508514,-3.603821,-1.742096,0,4,4,4,4,85.000000
2020-01-09 00:01:17.441,0,0,0,0,0,0,0,0,0,0,0,0,0,0,0,0,0,0,0,0,801.8315018315019,811.9047619047619,809.4871794871796,802.6373626373627,898.9377289377289,-0.404541,0.097595,0.918030,4.508514,-3.603821,-1.742096,0,4,4,4,4,85.000000
2020-01-09 00:01:17.442,0,0,0,0,0,0,0,0,0,0,0,0,0,0,0,0,0,0,0,0,801.025641025641,812.7106227106227,809.0842490842491,798.2051282051282,468.2051282051282,-0.404541,0.097595,0.918030,4.508514,-3.603821,-1.742096,0,4,4,4,4,85.000000
2020-01-09 00:01:17.442,0,0,0,0,0,0,0,0,0,0,0,0,0,0,0,0,0,0,0,0,807.0695970695971,810.6959706959707,809.8901098901099,810.2930402930403,734.9450549450549,-0.404541,0.097595,0.918030,4.508514,-3.603821,-1.742096,0,4,4,4,4,85.000000
2020-01-09 00:01:17.442,0,0,0,0,0,0,0,0,0,0,0,0,0,0,0,0,0,0,0,0,810.2930402930403,812.3076923076924,812.3076923076924,813.1135531135532,1048.424908424908,-0.404541,0.097595,0.918030,4.508514,-3.603821,-1.742096,0,4,4,4,4,85.000000
2020-01-09 00:01:17.442,0,0,0,0,0,0,0,0,0,0,0,0,0,0,0,0,0,0,0,0,809.8901098901099,817.5457875457876,812.3076923076924,802.6373626373627,1062.124542124542,-0.404541,0.097595,0.918030,4.508514,-3.603821,-1.742096,0,4,4,4,4,85.000000
2020-01-09 00:01:17.443,0,0,0,0,0,0,0,0,0,0,0,0,0,0,0,0,0,0,0,0,803.4432234432235,815.5311355311355,807.0695970695971,788.5347985347986,699.4871794871796,-0.404541,0.097595,0.918030,4.508514,-3.603821,-1.742096,0,4,4,4,4,85.000000
2020-01-09 00:01:17.443,0,0,0,0,0,0,0,0,0,0,0,0,0,0,0,0,0,0,0,0,806.6666666666667,811.9047619047619,804.2490842490843,792.5641025641025,486.3369963369964,-0.404541,0.097595,0.918030,4.508514,-3.603821,-1.742096,0,4,4,4,4,85.000000
2020-01-09 00:01:17.443,0,0,0,0,0,0,0,0,0,0,0,0,0,0,0,0,0,0,0,0,815.934065934066,811.0989010989011,807.4725274725275,809.4871794871796,845.7509157509157,-0.404541,0.097595,0.918030,4.508514,-3.603821,-1.742096,0,4,4,4,4,85.000000
2020-01-09 00:01:17.444,0,0,0,0,0,0,0,0,0,0,0,0,0,0,0,0,0,0,0,0,814.3223443223443,813.1135531135532,810.2930402930403,810.2930402930403,1047.619047619048,-0.404541,0.097595,0.918030,4.508514,-3.603821,-1.742096,0,4,4,4,4,85.000000
2020-01-09 00:01:17.444,0,0,0,0,0,0,0,0,0,0,0,0,0,0,0,0,0,0,0,0,803.040293040293,813.1135531135532,808.2783882783883,801.025641025641,784.5054945054945,-0.404541,0.097595,0.918030,4.508514,-3.603821,-1.742096,0,4,4,4,4,85.000000
2020-01-09 00:01:17.444,0,0,0,0,0,0,0,0,0,0,0,0,0,0,0,0,0,0,0,0,801.025641025641,811.9047619047619,802.6373626373627,801.8315018315019,534.2857142857143,-0.404541,0.097595,0.918030,4.508514,-3.603821,-1.742096,0,4,4,4,4,85.000000
2020-01-09 00:01:17.444,0,0,0,0,0,0,0,0,0,0,0,0,0,0,0,0,0,0,0,0,801.8315018315019,810.2930402930403,799.8168498168499,805.8608058608058,739.3772893772893,-0.404541,0.097595,0.918030,4.508514,-3.603821,-1.742096,0,4,4,4,4,85.000000
2020-01-09 00:01:17.444,0,0,0,0,0,0,0,0,0,0,0,0,0,0,0,0,0,0,0,0,799.4139194139194,807.8754578754579,802.6373626373627,808.2783882783883,992.014652014652,-0.404541,0.097595,0.918030,4.508514,-3.603821,-1.742096,0,4,4,4,4,85.000000
2020-01-09 00:01:17.444,0,0,0,0,0,0,0,0,0,0,0,0,0,0,0,0,0,0,0,0,793.7728937728938,809.4871794871796,807.0695970695971,803.4432234432235,814.3223443223443,-0.404541,0.097595,0.918030,4.508514,-3.603821,-1.742096,0,4,4,4,4,85.000000
2020-01-09 00:01:17.445,0,0,0,0,0,0,0,0,0,0,0,0,0,0,0,0,0,0,0,0,782.893772893773,808.2783882783883,802.2344322344322,801.8315018315019,522.1978021978022,-0.404541,0.097595,0.918030,4.508514,-3.603821,-1.742096,0,4,4,4,4,85.000000
2020-01-09 00:01:17.445,0,0,0,0,0,0,0,0,0,0,0,0,0,0,0,0,0,0,0,0,796.5934065934066,807.8754578754579,807.4725274725275,815.5311355311355,587.4725274725275,-0.404541,0.097595,0.918030,4.508514,-3.603821,-1.742096,0,4,4,4,4,85.000000
2020-01-09 00:01:17.445,0,0,0,0,0,0,0,0,0,0,0,0,0,0,0,0,0,0,0,0,810.2930402930403,809.8901098901099,817.948717948718,822.3809523809524,979.92673992674,-0.404541,0.097595,0.918030,4.508514,-3.603821,-1.742096,0,4,4,4,4,85.000000
2020-01-09 00:01:17.445,0,0,0,0,0,0,0,0,0,0,0,0,0,0,0,0,0,0,0,0,801.4285714285714,806.2637362637363,811.9047619047619,811.5018315018315,1106.446886446887,-0.405029,0.098022,0.919495,4.605713,-3.461761,-1.824341,0,4,4,4,4,85.000000
2020-01-09 00:01:17.445,0,0,0,0,0,0,0,0,0,0,0,0,0,0,0,0,0,0,0,0,791.7582417582418,803.8461538461539,807.4725274725275,802.2344322344322,599.1575091575091,-0.405029,0.098022,0.919495,4.605713,-3.461761,-1.824341,0,4,4,4,4,85.000000
2020-01-09 00:01:17.445,0,0,0,0,0,0,0,0,0,0,0,0,0,0,0,0,0,0,0,0,796.996336996337,805.0549450549451,810.6959706959707,805.8608058608058,452.8937728937729,-0.405029,0.098022,0.919495,4.605713,-3.461761,-1.824341,0,4,4,4,4,85.000000
2020-01-09 00:01:17.445,0,0,0,0,0,0,0,0,0,0,0,0,0,0,0,0,0,0,0,0,807.8754578754579,804.6520146520147,811.5018315018315,809.0842490842491,881.2087912087912,-0.405029,0.098022,0.919495,4.605713,-3.461761,-1.824341,0,4,4,4,4,85.000000
2020-01-09 00:01:17.445,0,0,0,0,0,0,0,0,0,0,0,0,0,0,0,0,0,0,0,0,808.2783882783883,801.025641025641,813.1135531135532,801.4285714285714,950.5128205128206,-0.405029,0.098022,0.919495,4.605713,-3.461761,-1.824341,0,4,4,4,4,85.000000
2020-01-09 00:01:17.446,0,0,0,0,0,0,0,0,0,0,0,0,0,0,0,0,0,0,0,0,800.6227106227107,807.4725274725275,813.919413919414,793.7728937728938,666.0439560439561,-0.405029,0.098022,0.919495,4.605713,-3.461761,-1.824341,0,4,4,4,4,85.000000
2020-01-09 00:01:17.446,0,0,0,0,0,0,0,0,0,0,0,0,0,0,0,0,0,0,0,0,793.3699633699634,811.9047619047619,810.6959706959707,797.3992673992674,551.2087912087912,-0.405029,0.098022,0.919495,4.605713,-3.461761,-1.824341,0,4,4,4,4,85.000000
2020-01-09 00:01:17.446,0,0,0,0,0,0,0,0,0,0,0,0,0,0,0,0,0,0,0,0,806.6666666666667,811.0989010989011,815.1282051282052,813.1135531135532,920.2930402930403,-0.405029,0.098022,0.919495,4.605713,-3.461761,-1.824341,0,4,4,4,4,85.000000
2020-01-09 00:01:17.446,0,0,0,0,0,0,0,0,0,0,0,0,0,0,0,0,0,0,0,0,809.8901098901099,809.0842490842491,820.3663003663004,813.919413919414,1249.084249084249,-0.405029,0.098022,0.919495,4.605713,-3.461761,-1.824341,0,4,4,4,4,85.000000
2020-01-09 00:01:17.446,0,0,0,0,0,0,0,0,0,0,0,0,0,0,0,0,0,0,0,0,792.1611721611722,809.4871794871796,817.948717948718,794.5787545787546,735.3479853479854,-0.405029,0.098022,0.919495,4.605713,-3.461761,-1.824341,0,4,4,4,4,85.000000
2020-01-09 00:01:17.446,0,0,0,0,0,0,0,0,0,0,0,0,0,0,0,0,0,0,0,0,785.7142857142858,809.4871794871796,815.1282051282052,790.1465201465202,414.2124542124542,-0.405029,0.098022,0.919495,4.605713,-3.461761,-1.824341,0,4,4,4,4,85.000000
2020-01-09 00:01:17.446,0,0,0,0,0,0,0,0,0,0,0,0,0,0,0,0,0,0,0,0,796.5934065934066,809.4871794871796,819.96336996337,803.040293040293,825.2014652014652,-0.405029,0.098022,0.919495,4.605713,-3.461761,-1.824341,0,4,4,4,4,85.000000
2020-01-09 00:01:17.447,0,0,0,0,0,0,0,0,0,0,0,0,0,0,0,0,0,0,0,0,799.4139194139194,808.2783882783883,824.7985347985348,808.6813186813187,1181.391941391941,-0.399963,0.102112,0.917603,4.403839,-3.499146,-1.786957,0,4,4,4,4,85.000000
2020-01-09 00:01:17.447,0,0,0,0,0,0,0,0,0,0,0,0,0,0,0,0,0,0,0,0,790.1465201465202,807.0695970695971,817.948717948718,793.3699633699634,917.4725274725275,-0.399963,0.102112,0.917603,4.403839,-3.499146,-1.786957,0,4,4,4,4,85.000000
2020-01-09 00:01:17.447,0,0,0,0,0,0,0,0,0,0,0,0,0,0,0,0,0,0,0,0,791.3553113553114,808.2783882783883,813.919413919414,785.3113553113553,493.992673992674,-0.399963,0.102112,0.917603,4.403839,-3.499146,-1.786957,0,4,4,4,4,85.000000
2020-01-09 00:01:17.447,0,0,0,0,0,0,0,0,0,0,0,0,0,0,0,0,0,0,0,0,796.996336996337,806.6666666666667,815.5311355311355,795.7875457875458,738.5714285714286,-0.399963,0.102112,0.917603,4.403839,-3.499146,-1.786957,0,4,4,4,4,85.000000
2020-01-09 00:01:17.448,0,0,0,0,0,0,0,0,0,0,0,0,0,0,0,0,0,0,0,0,796.5934065934066,807.8754578754579,815.5311355311355,805.4578754578755,1160.03663003663,-0.399963,0.102112,0.917603,4.403839,-3.499146,-1.786957,0,4,4,4,4,85.000000
2020-01-09 00:01:17.448,0,0,0,0,0,0,0,0,0,0,0,0,0,0,0,0,0,0,0,0,794.1758241758242,809.4871794871796,815.5311355311355,800.2197802197802,1101.611721611722,-0.399963,0.102112,0.917603,4.403839,-3.499146,-1.786957,0,4,4,4,4,85.000000
2020-01-09 00:01:17.448,0,0,0,0,0,0,0,0,0,0,0,0,0,0,0,0,0,0,0,0,788.5347985347986,807.0695970695971,813.919413919414,790.952380952381,678.1318681318681,-0.399963,0.102112,0.917603,4.403839,-3.499146,-1.786957,0,4,4,4,4,85.000000
2020-01-09 00:01:17.448,0,0,0,0,0,0,0,0,0,0,0,0,0,0,0,0,0,0,0,0,789.3406593406594,802.2344322344322,811.0989010989011,795.7875457875458,475.4578754578754,-0.399963,0.102112,0.917603,4.403839,-3.499146,-1.786957,0,4,4,4,4,85.000000
2020-01-09 00:01:17.448,0,0,0,0,0,0,0,0,0,0,0,0,0,0,0,0,0,0,0,0,801.4285714285714,803.8461538461539,813.5164835164835,801.8315018315019,940.4395604395605,-0.399963,0.102112,0.917603,4.403839,-3.499146,-1.786957,0,4,4,4,4,85.000000
2020-01-09 00:01:17.448,0,0,0,0,0,0,0,0,0,0,0,0,0,0,0,0,0,0,0,0,794.981684981685,799.4139194139194,813.919413919414,787.7289377289378,1143.516483516484,-0.399963,0.102112,0.917603,4.403839,-3.499146,-1.786957,0,4,4,4,4,85.000000
2020-01-09 00:01:17.448,0,0,0,0,0,0,0,0,0,0,0,0,0,0,0,0,0,0,0,0,782.893772893773,797.3992673992674,814.3223443223443,776.4468864468864,689.8168498168499,-0.399963,0.102112,0.917603,4.403839,-3.499146,-1.786957,0,4,4,4,4,85.000000
2020-01-09 00:01:17.449,0,0,0,0,0,0,0,0,0,0,0,0,0,0,0,0,0,0,0,0,794.5787545787546,802.6373626373627,815.5311355311355,790.5494505494506,711.978021978022,-0.399963,0.102112,0.917603,4.403839,-3.499146,-1.786957,0,4,4,4,4,85.000000
2020-01-09 00:01:17.449,0,0,0,0,0,0,0,0,0,0,0,0,0,0,0,0,0,0,0,0,805.4578754578755,807.4725274725275,818.7545787545788,806.6666666666667,1124.175824175824,-0.397766,0.100769,0.915161,4.515991,-3.521576,-1.532745,0,4,4,4,4,85.000000
2020-01-09 00:01:17.449,0,0,0,0,0,0,0,0,0,0,0,0,0,0,0,0,0,0,0,0,801.8315018315019,809.8901098901099,819.1575091575091,798.6080586080586,1109.67032967033,-0.397766,0.100769,0.915161,4.515991,-3.521576,-1.532745,0,4,4,4,4,85.000000
2020-01-09 00:01:17.449,0,0,0,0,0,0,0,0,0,0,0,0,0,0,0,0,0,0,0,0,789.7435897435897,807.8754578754579,817.1428571428571,786.9230769230769,716.007326007326,-0.397766,0.100769,0.915161,4.515991,-3.521576,-1.532745,0,4,4,4,4,85.000000
2020-01-09 00:01:17.449,0,0,0,0,0,0,0,0,0,0,0,0,0,0,0,0,0,0,0,0,785.3113553113553,807.4725274725275,817.948717948718,788.9377289377289,421.0622710622711,-0.397766,0.100769,0.915161,4.515991,-3.521576,-1.532745,0,4,4,4,4,85.000000
2020-01-09 00:01:17.449,0,0,0,0,0,0,0,0,0,0,0,0,0,0,0,0,0,0,0,0,801.025641025641,808.6813186813187,817.5457875457876,804.2490842490843,676.9230769230769,-0.397766,0.100769,0.915161,4.515991,-3.521576,-1.532745,0,4,4,4,4,85.000000
2020-01-09 00:01:17.449,0,0,0,0,0,0,0,0,0,0,0,0,0,0,0,0,0,0,0,0,807.4725274725275,807.8754578754579,816.7399267399268,812.7106227106227,1078.644688644689,-0.397766,0.100769,0.915161,4.515991,-3.521576,-1.532745,0,4,4,4,4,85.000000
2020-01-09 00:01:17.450,0,0,0,0,0,0,0,0,0,0,0,0,0,0,0,0,0,0,0,0,800.6227106227107,807.8754578754579,816.3369963369963,805.0549450549451,957.3626373626374,-0.397766,0.100769,0.915161,4.515991,-3.521576,-1.532745,0,4,4,4,4,85.000000
2020-01-09 00:01:17.450,0,0,0,0,0,0,0,0,0,0,0,0,0,0,0,0,0,0,0,0,792.5641025641025,805.0549450549451,814.7252747252747,801.025641025641,761.1355311355312,-0.397766,0.100769,0.915161,4.515991,-3.521576,-1.532745,0,4,4,4,4,85.000000
2020-01-09 00:01:17.450,0,0,0,0,0,0,0,0,0,0,0,0,0,0,0,0,0,0,0,0,790.1465201465202,807.0695970695971,815.5311355311355,803.4432234432235,776.0439560439561,-0.397766,0.100769,0.915161,4.515991,-3.521576,-1.532745,0,4,4,4,4,85.000000
2020-01-09 00:01:17.450,0,0,0,0,0,0,0,0,0,0,0,0,0,0,0,0,0,0,0,0,800.2197802197802,811.9047619047619,820.3663003663004,809.4871794871796,919.0842490842491,-0.397766,0.100769,0.915161,4.515991,-3.521576,-1.532745,0,4,4,4,4,85.000000
2020-01-09 00:01:17.450,0,0,0,0,0,0,0,0,0,0,0,0,0,0,0,0,0,0,0,0,798.6080586080586,809.8901098901099,817.948717948718,801.025641025641,813.5164835164835,-0.397766,0.100769,0.915161,4.515991,-3.521576,-1.532745,0,4,4,4,4,85.000000
2020-01-09 00:01:17.450,0,0,0,0,0,0,0,0,0,0,0,0,0,0,0,0,0,0,0,0,788.9377289377289,803.4432234432235,812.7106227106227,786.1172161172161,522.1978021978022,-0.397766,0.100769,0.915161,4.515991,-3.521576,-1.532745,0,4,4,4,4,85.000000
2020-01-09 00:01:17.450,0,0,0,0,0,0,0,0,0,0,0,0,0,0,0,0,0,0,0,0,791.3553113553114,799.0109890109891,813.5164835164835,791.7582417582418,519.7802197802198,-0.404846,0.098816,0.918274,4.284210,-3.708496,-1.824341,0,4,4,4,4,85.000000
2020-01-09 00:01:17.451,0,0,0,0,0,0,0,0,0,0,0,0,0,0,0,0,0,0,0,0,805.8608058608058,807.8754578754579,815.5311355311355,806.2637362637363,856.6300366300367,-0.404846,0.098816,0.918274,4.284210,-3.708496,-1.824341,0,4,4,4,4,85.000000
2020-01-09 00:01:17.451,0,0,0,0,0,0,0,0,0,0,0,0,0,0,0,0,0,0,0,0,811.0989010989011,811.5018315018315,813.1135531135532,809.0842490842491,1149.157509157509,-0.404846,0.098816,0.918274,4.284210,-3.708496,-1.824341,0,4,4,4,4,85.000000
2020-01-09 00:01:17.451,0,0,0,0,0,0,0,0,0,0,0,0,0,0,0,0,0,0,0,0,802.6373626373627,811.5018315018315,813.919413919414,801.025641025641,808.6813186813187,-0.404846,0.098816,0.918274,4.284210,-3.708496,-1.824341,0,4,4,4,4,85.000000
2020-01-09 00:01:17.451,0,0,0,0,0,0,0,0,0,0,0,0,0,0,0,0,0,0,0,0,803.4432234432235,812.7106227106227,812.3076923076924,800.2197802197802,394.8717948717949,-0.404846,0.098816,0.918274,4.284210,-3.708496,-1.824341,0,4,4,4,4,85.000000
2020-01-09 00:01:17.451,0,0,0,0,0,0,0,0,0,0,0,0,0,0,0,0,0,0,0,0,810.2930402930403,813.919413919414,810.6959706959707,812.3076923076924,751.4652014652015,-0.404846,0.098816,0.918274,4.284210,-3.708496,-1.824341,0,4,4,4,4,85.000000
2020-01-09 00:01:17.452,0,0,0,0,0,0,0,0,0,0,0,0,0,0,0,0,0,0,0,0,807.4725274725275,811.5018315018315,810.6959706959707,812.7106227106227,1124.578754578755,-0.404846,0.098816,0.918274,4.284210,-3.708496,-1.824341,0,4,4,4,4,85.000000
2020-01-09 00:01:17.452,0,0,0,0,0,0,0,0,0,0,0,0,0,0,0,0,0,0,0,0,795.7875457875458,809.8901098901099,812.7106227106227,793.7728937728938,810.6959706959707,-0.404846,0.098816,0.918274,4.284210,-3.708496,-1.824341,0,4,4,4,4,85.000000
2020-01-09 00:01:17.452,0,0,0,0,0,0,0,0,0,0,0,0,0,0,0,0,0,0,0,0,786.5201465201466,808.2783882783883,809.4871794871796,779.2673992673992,388.4249084249084,-0.404846,0.098816,0.918274,4.284210,-3.708496,-1.824341,0,4,4,4,4,85.000000
2020-01-09 00:01:17.452,0,0,0,0,0,0,0,0,0,0,0,0,0,0,0,0,0,0,0,0,790.5494505494506,803.4432234432235,806.6666666666667,791.7582417582418,543.1501831501831,-0.404846,0.098816,0.918274,4.284210,-3.708496,-1.824341,0,4,4,4,4,85.000000
2020-01-09 00:01:17.452,0,0,0,0,0,0,0,0,0,0,0,0,0,0,0,0,0,0,0,0,802.6373626373627,803.4432234432235,811.5018315018315,808.6813186813187,1132.637362637363,-0.404846,0.098816,0.918274,4.284210,-3.708496,-1.824341,0,4,4,4,4,85.000000
2020-01-09 00:01:17.452,0,0,0,0,0,0,0,0,0,0,0,0,0,0,0,0,0,0,0,0,791.7582417582418,805.0549450549451,811.0989010989011,799.4139194139194,1059.70695970696,-0.404846,0.098816,0.918274,4.284210,-3.708496,-1.824341,0,4,4,4,4,85.000000
2020-01-09 00:01:17.453,0,0,0,0,0,0,0,0,0,0,0,0,0,0,0,0,0,0,0,0,788.5347985347986,805.8608058608058,806.6666666666667,784.1025641025641,444.0293040293041,-0.404846,0.098816,0.918274,4.284210,-3.708496,-1.824341,0,4,4,4,4,85.000000
2020-01-09 00:01:17.453,0,0,0,0,0,0,0,0,0,0,0,0,0,0,0,0,0,0,0,0,802.2344322344322,811.0989010989011,806.2637362637363,788.5347985347986,525.018315018315,-0.404846,0.098816,0.918274,4.284210,-3.708496,-1.824341,0,4,4,4,4,85.000000
2020-01-09 00:01:17.453,0,0,0,0,0,0,0,0,0,0,0,0,0,0,0,0,0,0,0,0,807.4725274725275,813.5164835164835,808.6813186813187,799.4139194139194,1060.512820512821,-0.404846,0.098816,0.918274,4.284210,-3.708496,-1.824341,0,4,4,4,4,85.000000
2020-01-09 00:01:17.453,0,0,0,0,0,0,0,0,0,0,0,0,0,0,0,0,0,0,0,0,798.6080586080586,817.1428571428571,809.0842490842491,796.1904761904763,1189.85347985348,-0.404846,0.098816,0.918274,4.284210,-3.708496,-1.824341,0,4,4,4,4,85.000000
2020-01-09 00:01:17.453,0,0,0,0,0,0,0,0,0,0,0,0,0,0,0,0,0,0,0,0,792.5641025641025,814.3223443223443,806.2637362637363,786.1172161172161,670.4761904761905,-0.404846,0.098816,0.918274,4.284210,-3.708496,-1.824341,0,4,4,4,4,85.000000
2020-01-09 00:01:17.453,0,0,0,0,0,0,0,0,0,0,0,0,0,0,0,0,0,0,0,0,797.8021978021978,809.0842490842491,809.8901098901099,794.1758241758242,550,-0.404846,0.098816,0.918274,4.284210,-3.708496,-1.824341,0,4,4,4,4,85.000000
2020-01-09 00:01:17.453,0,0,0,0,0,0,0,0,0,0,0,0,0,0,0,0,0,0,0,0,807.4725274725275,811.5018315018315,814.3223443223443,813.1135531135532,1198.315018315018,-0.404846,0.098816,0.918274,4.284210,-3.708496,-1.824341,0,4,4,4,4,85.000000
2020-01-09 00:01:17.454,0,0,0,0,0,0,0,0,0,0,0,0,0,0,0,0,0,0,0,0,804.6520146520147,814.7252747252747,814.3223443223443,805.8608058608058,1209.59706959707,-0.404846,0.098816,0.918274,4.284210,-3.708496,-1.824341,0,4,4,4,4,85.000000
2020-01-09 00:01:17.454,0,0,0,0,0,0,0,0,0,0,0,0,0,0,0,0,0,0,0,0,790.952380952381,814.7252747252747,809.4871794871796,792.967032967033,666.0439560439561,-0.404846,0.098816,0.918274,4.284210,-3.708496,-1.824341,0,4,4,4,4,85.000000
2020-01-09 00:01:17.454,0,0,0,0,0,0,0,0,0,0,0,0,0,0,0,0,0,0,0,0,793.3699633699634,814.3223443223443,807.8754578754579,798.2051282051282,491.978021978022,-0.404846,0.098816,0.918274,4.284210,-3.708496,-1.824341,0,4,4,4,4,85.000000
2020-01-09 00:01:17.454,0,0,0,0,0,0,0,0,0,0,0,0,0,0,0,0,0,0,0,0,808.6813186813187,816.7399267399268,813.1135531135532,803.8461538461539,745.0183150183151,-0.404846,0.098816,0.918274,4.284210,-3.708496,-1.824341,0,4,4,4,4,85.000000
2020-01-09 00:01:17.454,0,0,0,0,0,0,0,0,0,0,0,0,0,0,0,0,0,0,0,0,814.7252747252747,816.3369963369963,815.934065934066,801.025641025641,1019.413919413919,-0.404846,0.098816,0.918274,4.284210,-3.708496,-1.824341,0,4,4,4,4,85.000000
2020-01-09 00:01:17.454,0,0,0,0,0,0,0,0,0,0,0,0,0,0,0,0,0,0,0,0,806.6666666666667,811.5018315018315,813.5164835164835,794.981684981685,738.1684981684982,-0.406677,0.098816,0.917969,4.538422,-3.469238,-1.981354,0,4,4,4,4,85.000000
2020-01-09 00:01:17.454,0,0,0,0,0,0,0,0,0,0,0,0,0,0,0,0,0,0,0,0,802.6373626373627,809.4871794871796,812.3076923076924,793.3699633699634,429.5238095238095,-0.406677,0.098816,0.917969,4.538422,-3.469238,-1.981354,0,4,4,4,4,85.000000
2020-01-09 00:01:17.455,0,0,0,0,0,0,0,0,0,0,0,0,0,0,0,0,0,0,0,0,811.5018315018315,815.1282051282052,814.3223443223443,810.2930402930403,660,-0.406677,0.098816,0.917969,4.538422,-3.469238,-1.981354,0,4,4,4,4,85.000000
2020-01-09 00:01:17.455,0,0,0,0,0,0,0,0,0,0,0,0,0,0,0,0,0,0,0,0,818.3516483516484,814.7252747252747,815.1282051282052,816.3369963369963,1024.249084249084,-0.406677,0.098816,0.917969,4.538422,-3.469238,-1.981354,0,4,4,4,4,85.000000
2020-01-09 00:01:17.455,0,0,0,0,0,0,0,0,0,0,0,0,0,0,0,0,0,0,0,0,817.1428571428571,812.7106227106227,815.934065934066,803.8461538461539,973.8827838827839,-0.406677,0.098816,0.917969,4.538422,-3.469238,-1.981354,0,4,4,4,4,85.000000
2020-01-09 00:01:17.455,0,0,0,0,0,0,0,0,0,0,0,0,0,0,0,0,0,0,0,0,811.5018315018315,815.1282051282052,813.919413919414,801.8315018315019,630.5860805860806,-0.406677,0.098816,0.917969,4.538422,-3.469238,-1.981354,0,4,4,4,4,85.000000
2020-01-09 00:01:17.455,0,0,0,0,0,0,0,0,0,0,0,0,0,0,0,0,0,0,0,0,812.7106227106227,814.7252747252747,813.919413919414,809.4871794871796,608.4249084249085,-0.406677,0.098816,0.917969,4.538422,-3.469238,-1.981354,0,4,4,4,4,85.000000
2020-01-09 00:01:17.456,0,0,0,0,0,0,0,0,0,0,0,0,0,0,0,0,0,0,0,0,818.3516483516484,813.5164835164835,819.1575091575091,815.1282051282052,1057.289377289377,-0.406677,0.098816,0.917969,4.538422,-3.469238,-1.981354,0,4,4,4,4,85.000000
2020-01-09 00:01:17.456,0,0,0,0,0,0,0,0,0,0,0,0,0,0,0,0,0,0,0,0,809.4871794871796,809.4871794871796,818.7545787545788,803.4432234432235,1075.824175824176,-0.406677,0.098816,0.917969,4.538422,-3.469238,-1.981354,0,4,4,4,4,85.000000
2020-01-09 00:01:17.456,0,0,0,0,0,0,0,0,0,0,0,0,0,0,0,0,0,0,0,0,800.2197802197802,805.8608058608058,812.7106227106227,792.5641025641025,757.5091575091575,-0.406677,0.098816,0.917969,4.538422,-3.469238,-1.981354,0,4,4,4,4,85.000000
2020-01-09 00:01:17.456,0,0,0,0,0,0,0,0,0,0,0,0,0,0,0,0,0,0,0,0,803.4432234432235,813.5164835164835,811.9047619047619,799.0109890109891,678.1318681318681,-0.406677,0.098816,0.917969,4.538422,-3.469238,-1.981354,0,4,4,4,4,85.000000
2020-01-09 00:01:17.456,0,0,0,0,0,0,0,0,0,0,0,0,0,0,0,0,0,0,0,0,814.7252747252747,822.7838827838829,819.1575091575091,812.3076923076924,782.893772893773,-0.406677,0.098816,0.917969,4.538422,-3.469238,-1.981354,0,4,4,4,4,85.000000
2020-01-09 00:01:17.456,0,0,0,0,0,0,0,0,0,0,0,0,0,0,0,0,0,0,0,0,809.4871794871796,818.7545787545788,822.3809523809524,809.8901098901099,1002.087912087912,-0.409180,0.097778,0.921143,4.089813,-3.065491,-1.996307,0,4,4,4,4,85.000000
2020-01-09 00:01:17.456,0,0,0,0,0,0,0,0,0,0,0,0,0,0,0,0,0,0,0,0,792.967032967033,814.3223443223443,815.934065934066,791.7582417582418,717.6190476190476,-0.409180,0.097778,0.921143,4.089813,-3.065491,-1.996307,0,4,4,4,4,85.000000
2020-01-09 00:01:17.457,0,0,0,0,0,0,0,0,0,0,0,0,0,0,0,0,0,0,0,0,792.1611721611722,815.934065934066,811.9047619047619,794.5787545787546,351.3553113553114,-0.409180,0.097778,0.921143,4.089813,-3.065491,-1.996307,0,4,4,4,4,85.000000
2020-01-09 00:01:17.457,0,0,0,0,0,0,0,0,0,0,0,0,0,0,0,0,0,0,0,0,801.025641025641,816.3369963369963,818.3516483516484,808.2783882783883,603.1868131868132,-0.409180,0.097778,0.921143,4.089813,-3.065491,-1.996307,0,4,4,4,4,85.000000
2020-01-09 00:01:17.457,0,0,0,0,0,0,0,0,0,0,0,0,0,0,0,0,0,0,0,0,805.8608058608058,813.1135531135532,819.5604395604396,809.0842490842491,1034.725274725275,-0.409180,0.097778,0.921143,4.089813,-3.065491,-1.996307,0,4,4,4,4,85.000000
2020-01-09 00:01:17.457,0,0,0,0,0,0,0,0,0,0,0,0,0,0,0,0,0,0,0,0,798.2051282051282,812.3076923076924,813.919413919414,796.5934065934066,957.3626373626374,-0.409180,0.097778,0.921143,4.089813,-3.065491,-1.996307,0,4,4,4,4,85.000000
2020-01-09 00:01:17.457,0,0,0,0,0,0,0,0,0,0,0,0,0,0,0,0,0,0,0,0,795.7875457875458,815.934065934066,811.9047619047619,789.7435897435897,570.5494505494505,-0.409180,0.097778,0.921143,4.089813,-3.065491,-1.996307,0,4,4,4,4,85.000000
2020-01-09 00:01:17.457,0,0,0,0,0,0,0,0,0,0,0,0,0,0,0,0,0,0,0,0,807.4725274725275,821.5750915750916,815.934065934066,803.8461538461539,602.3809523809524,-0.409180,0.097778,0.921143,4.089813,-3.065491,-1.996307,0,4,4,4,4,85.000000
2020-01-09 00:01:17.457,0,0,0,0,0,0,0,0,0,0,0,0,0,0,0,0,0,0,0,0,814.7252747252747,819.5604395604396,819.5604395604396,812.7106227106227,1023.846153846154,-0.409180,0.097778,0.921143,4.089813,-3.065491,-1.996307,0,4,4,4,4,85.000000
2020-01-09 00:01:17.458,0,0,0,0,0,0,0,0,0,0,0,0,0,0,0,0,0,0,0,0,809.0842490842491,813.1135531135532,817.5457875457876,803.4432234432235,1042.783882783883,-0.409180,0.097778,0.921143,4.089813,-3.065491,-1.996307,0,4,4,4,4,85.000000
2020-01-09 00:01:17.458,0,0,0,0,0,0,0,0,0,0,0,0,0,0,0,0,0,0,0,0,799.8168498168499,809.4871794871796,816.7399267399268,796.5934065934066,585.8608058608058,-0.409180,0.097778,0.921143,4.089813,-3.065491,-1.996307,0,4,4,4,4,85.000000
2020-01-09 00:01:17.458,0,0,0,0,0,0,0,0,0,0,0,0,0,0,0,0,0,0,0,0,803.4432234432235,806.6666666666667,817.1428571428571,797.3992673992674,487.948717948718,-0.409180,0.097778,0.921143,4.089813,-3.065491,-1.996307,0,4,4,4,4,85.000000
2020-01-09 00:01:17.458,0,0,0,0,0,0,0,0,0,0,0,0,0,0,0,0,0,0,0,0,814.3223443223443,805.0549450549451,816.7399267399268,806.6666666666667,964.6153846153846,-0.405090,0.100159,0.919556,4.216919,-3.992615,-1.973877,0,4,4,4,4,85.000000
2020-01-09 00:01:17.458,0,0,0,0,0,0,0,0,0,0,0,0,0,0,0,0,0,0,0,0,808.6813186813187,809.8901098901099,815.5311355311355,807.4725274725275,1141.098901098901,-0.405090,0.100159,0.919556,4.216919,-3.992615,-1.973877,0,4,4,4,4,85.000000
2020-01-09 00:01:17.458,0,0,0,0,0,0,0,0,0,0,0,0,0,0,0,0,0,0,0,0,801.8315018315019,813.1135531135532,813.5164835164835,794.981684981685,653.1501831501831,-0.405090,0.100159,0.919556,4.216919,-3.992615,-1.973877,0,4,4,4,4,85.000000
2020-01-09 00:01:17.458,0,0,0,0,0,0,0,0,0,0,0,0,0,0,0,0,0,0,0,0,807.0695970695971,809.4871794871796,807.8754578754579,794.1758241758242,355.7875457875458,-0.405090,0.100159,0.919556,4.216919,-3.992615,-1.973877,0,4,4,4,4,85.000000
2020-01-09 00:01:17.459,0,0,0,0,0,0,0,0,0,0,0,0,0,0,0,0,0,0,0,0,814.7252747252747,813.919413919414,807.0695970695971,805.8608058608058,775.6410256410256,-0.405090,0.100159,0.919556,4.216919,-3.992615,-1.973877,0,4,4,4,4,85.000000
2020-01-09 00:01:17.459,0,0,0,0,0,0,0,0,0,0,0,0,0,0,0,0,0,0,0,0,809.0842490842491,820.7692307692308,813.5164835164835,804.2490842490843,1175.347985347985,-0.405090,0.100159,0.919556,4.216919,-3.992615,-1.973877,0,4,4,4,4,85.000000
2020-01-09 00:01:17.459,0,0,0,0,0,0,0,0,0,0,0,0,0,0,0,0,0,0,0,0,794.981684981685,816.7399267399268,810.2930402930403,790.5494505494506,884.8351648351648,-0.405090,0.100159,0.919556,4.216919,-3.992615,-1.973877,0,4,4,4,4,85.000000
2020-01-09 00:01:17.459,0,0,0,0,0,0,0,0,0,0,0,0,0,0,0,0,0,0,0,0,797.3992673992674,813.1135531135532,809.0842490842491,788.9377289377289,462.967032967033,-0.405090,0.100159,0.919556,4.216919,-3.992615,-1.973877,0,4,4,4,4,85.000000
2020-01-09 00:01:17.459,0,0,0,0,0,0,0,0,0,0,0,0,0,0,0,0,0,0,0,0,810.2930402930403,812.7106227106227,813.1135531135532,811.0989010989011,863.8827838827839,-0.405090,0.100159,0.919556,4.216919,-3.992615,-1.973877,0,4,4,4,4,85.000000
2020-01-09 00:01:17.460,0,0,0,0,0,0,0,0,0,0,0,0,0,0,0,0,0,0,0,0,811.9047619047619,812.7106227106227,814.7252747252747,828.8278388278388,1431.611721611722,-0.405090,0.100159,0.919556,4.216919,-3.992615,-1.973877,0,4,4,4,4,85.000000
2020-01-09 00:01:17.460,0,0,0,0,0,0,0,0,0,0,0,0,0,0,0,0,0,0,0,0,797.8021978021978,811.0989010989011,812.7106227106227,812.7106227106227,1047.619047619048,-0.405090,0.100159,0.919556,4.216919,-3.992615,-1.973877,0,4,4,4,4,85.000000
2020-01-09 00:01:17.460,0,0,0,0,0,0,0,0,0,0,0,0,0,0,0,0,0,0,0,0,793.3699633699634,810.2930402930403,807.4725274725275,799.0109890109891,477.4725274725275,-0.405090,0.100159,0.919556,4.216919,-3.992615,-1.973877,0,4,4,4,4,85.000000
2020-01-09 00:01:17.460,0,0,0,0,0,0,0,0,0,0,0,0,0,0,0,0,0,0,0,0,799.0109890109891,813.5164835164835,809.0842490842491,809.4871794871796,597.948717948718,-0.401062,0.100586,0.910095,4.172058,-4.067383,-2.205658,0,4,4,4,4,85.000000
2020-01-09 00:01:17.460,0,0,0,0,0,0,0,0,0,0,0,0,0,0,0,0,0,0,0,0,805.0549450549451,813.919413919414,817.5457875457876,821.978021978022,985.9706959706961,-0.401062,0.100586,0.910095,4.172058,-4.067383,-2.205658,0,4,4,4,4,85.000000
2020-01-09 00:01:17.460,0,0,0,0,0,0,0,0,0,0,0,0,0,0,0,0,0,0,0,0,803.8461538461539,818.7545787545788,816.3369963369963,814.3223443223443,899.3406593406594,-0.401062,0.100586,0.910095,4.172058,-4.067383,-2.205658,0,4,4,4,4,85.000000
2020-01-09 00:01:17.460,0,0,0,0,0,0,0,0,0,0,0,0,0,0,0,0,0,0,0,0,798.6080586080586,819.1575091575091,808.2783882783883,807.4725274725275,513.3333333333334,-0.401062,0.100586,0.910095,4.172058,-4.067383,-2.205658,0,4,4,4,4,85.000000
2020-01-09 00:01:17.461,0,0,0,0,0,0,0,0,0,0,0,0,0,0,0,0,0,0,0,0,803.4432234432235,818.7545787545788,810.6959706959707,823.1868131868132,686.5934065934066,-0.401062,0.100586,0.910095,4.172058,-4.067383,-2.205658,0,4,4,4,4,85.000000
2020-01-09 00:01:17.461,0,0,0,0,0,0,0,0,0,0,0,0,0,0,0,0,0,0,0,0,809.0842490842491,824.7985347985348,817.5457875457876,828.4249084249085,1164.468864468864,-0.401062,0.100586,0.910095,4.172058,-4.067383,-2.205658,0,4,4,4,4,85.000000
2020-01-09 00:01:17.461,0,0,0,0,0,0,0,0,0,0,0,0,0,0,0,0,0,0,0,0,804.6520146520147,822.7838827838829,817.5457875457876,815.5311355311355,1238.205128205128,-0.401062,0.100586,0.910095,4.172058,-4.067383,-2.205658,0,4,4,4,4,85.000000
2020-01-09 00:01:17.461,0,0,0,0,0,0,0,0,0,0,0,0,0,0,0,0,0,0,0,0,793.3699633699634,819.1575091575091,815.1282051282052,802.2344322344322,690.2197802197802,-0.401062,0.100586,0.910095,4.172058,-4.067383,-2.205658,0,4,4,4,4,85.000000
2020-01-09 00:01:17.461,0,0,0,0,0,0,0,0,0,0,0,0,0,0,0,0,0,0,0,0,794.981684981685,817.948717948718,813.5164835164835,804.2490842490843,375.1282051282051,-0.401062,0.100586,0.910095,4.172058,-4.067383,-2.205658,0,4,4,4,4,85.000000
2020-01-09 00:01:17.461,0,0,0,0,0,0,0,0,0,0,0,0,0,0,0,0,0,0,0,0,803.4432234432235,815.1282051282052,818.3516483516484,816.3369963369963,757.5091575091575,-0.401062,0.100586,0.910095,4.172058,-4.067383,-2.205658,0,4,4,4,4,85.000000
2020-01-09 00:01:17.461,0,0,0,0,0,0,0,0,0,0,0,0,0,0,0,0,0,0,0,0,804.6520146520147,817.1428571428571,821.5750915750916,815.1282051282052,1031.501831501831,-0.401062,0.100586,0.910095,4.172058,-4.067383,-2.205658,0,4,4,4,4,85.000000
2020-01-09 00:01:17.461,0,0,0,0,0,0,0,0,0,0,0,0,0,0,0,0,0,0,0,0,792.967032967033,817.1428571428571,816.7399267399268,798.2051282051282,822.7838827838829,-0.401062,0.100586,0.910095,4.172058,-4.067383,-2.205658,0,4,4,4,4,85.000000
2020-01-09 00:01:17.462,0,0,0,0,0,0,0,0,0,0,0,0,0,0,0,0,0,0,0,0,789.3406593406594,813.5164835164835,812.3076923076924,788.9377289377289,571.3553113553114,-0.401062,0.100586,0.910095,4.172058,-4.067383,-2.205658,0,4,4,4,4,85.000000
2020-01-09 00:01:17.462,0,0,0,0,0,0,0,0,0,0,0,0,0,0,0,0,0,0,0,0,798.6080586080586,811.0989010989011,813.919413919414,800.2197802197802,671.2820512820513,-0.401062,0.100586,0.910095,4.172058,-4.067383,-2.205658,0,4,4,4,4,85.000000
2020-01-09 00:01:17.462,0,0,0,0,0,0,0,0,0,0,0,0,0,0,0,0,0,0,0,0,800.2197802197802,809.8901098901099,816.7399267399268,809.4871794871796,1102.014652014652,-0.401062,0.100586,0.910095,4.172058,-4.067383,-2.205658,0,4,4,4,4,85.000000
2020-01-09 00:01:17.462,0,0,0,0,0,0,0,0,0,0,0,0,0,0,0,0,0,0,0,0,791.7582417582418,807.8754578754579,814.7252747252747,798.2051282051282,1078.241758241758,-0.401062,0.100586,0.910095,4.172058,-4.067383,-2.205658,0,4,4,4,4,85.000000
2020-01-09 00:01:17.462,0,0,0,0,0,0,0,0,0,0,0,0,0,0,0,0,0,0,0,0,786.1172161172161,804.6520146520147,811.0989010989011,789.7435897435897,557.6556776556777,-0.401062,0.100586,0.910095,4.172058,-4.067383,-2.205658,0,4,4,4,4,85.000000
2020-01-09 00:01:17.462,0,0,0,0,0,0,0,0,0,0,0,0,0,0,0,0,0,0,0,0,798.2051282051282,810.6959706959707,814.7252747252747,796.1904761904763,666.0439560439561,-0.401062,0.100586,0.910095,4.172058,-4.067383,-2.205658,0,4,4,4,4,85.000000
2020-01-09 00:01:17.462,0,0,0,0,0,0,0,0,0,0,0,0,0,0,0,0,0,0,0,0,809.8901098901099,817.1428571428571,819.96336996337,807.4725274725275,1061.318681318681,-0.401062,0.100586,0.910095,4.172058,-4.067383,-2.205658,0,4,4,4,4,85.000000
2020-01-09 00:01:17.463,0,0,0,0,0,0,0,0,0,0,0,0,0,0,0,0,0,0,0,0,798.2051282051282,814.7252747252747,819.1575091575091,810.6959706959707,1120.549450549451,-0.401062,0.100586,0.910095,4.172058,-4.067383,-2.205658,0,4,4,4,4,85.000000
2020-01-09 00:01:17.463,0,0,0,0,0,0,0,0,0,0,0,0,0,0,0,0,0,0,0,0,787.7289377289378,812.7106227106227,815.1282051282052,809.4871794871796,931.1721611721612,-0.401062,0.100586,0.910095,4.172058,-4.067383,-2.205658,0,4,4,4,4,85.000000
2020-01-09 00:01:17.463,0,0,0,0,0,0,0,0,0,0,0,0,0,0,0,0,0,0,0,0,794.1758241758242,811.9047619047619,815.5311355311355,809.4871794871796,602.3809523809524,-0.401062,0.100586,0.910095,4.172058,-4.067383,-2.205658,0,4,4,4,4,85.000000
2020-01-09 00:01:17.463,0,0,0,0,0,0,0,0,0,0,0,0,0,0,0,0,0,0,0,0,807.4725274725275,817.5457875457876,820.3663003663004,815.5311355311355,731.3186813186813,-0.401062,0.100586,0.910095,4.172058,-4.067383,-2.205658,0,4,4,4,4,85.000000
2020-01-09 00:01:17.463,0,0,0,0,0,0,0,0,0,0,0,0,0,0,0,0,0,0,0,0,805.0549450549451,815.934065934066,818.7545787545788,815.5311355311355,963.8095238095239,-0.401062,0.100586,0.910095,4.172058,-4.067383,-2.205658,0,4,4,4,4,85.000000
2020-01-09 00:01:17.464,0,0,0,0,0,0,0,0,0,0,0,0,0,0,0,0,0,0,0,0,790.1465201465202,805.8608058608058,815.934065934066,807.8754578754579,606.4102564102565,-0.405273,0.097412,0.923340,4.231873,-3.588867,-1.929016,0,4,4,4,4,85.000000
2020-01-09 00:01:17.464,0,0,0,0,0,0,0,0,0,0,0,0,0,0,0,0,0,0,0,0,791.7582417582418,809.4871794871796,817.1428571428571,807.0695970695971,334.8351648351648,-0.405273,0.097412,0.923340,4.231873,-3.588867,-1.929016,0,4,4,4,4,85.000000
2020-01-09 00:01:17.464,0,0,0,0,0,0,0,0,0,0,0,0,0,0,0,0,0,0,0,0,802.6373626373627,814.3223443223443,818.7545787545788,821.5750915750916,641.8681318681319,-0.405273,0.097412,0.923340,4.231873,-3.588867,-1.929016,0,4,4,4,4,85.000000
2020-01-09 00:01:17.464,0,0,0,0,0,0,0,0,0,0,0,0,0,0,0,0,0,0,0,0,802.2344322344322,813.5164835164835,818.3516483516484,826.8131868131868,1174.542124542125,-0.405273,0.097412,0.923340,4.231873,-3.588867,-1.929016,0,4,4,4,4,85.000000
2020-01-09 00:01:17.464,0,0,0,0,0,0,0,0,0,0,0,0,0,0,0,0,0,0,0,0,793.3699633699634,813.5164835164835,814.7252747252747,810.2930402930403,885.6410256410256,-0.405273,0.097412,0.923340,4.231873,-3.588867,-1.929016,0,4,4,4,4,85.000000
2020-01-09 00:01:17.464,0,0,0,0,0,0,0,0,0,0,0,0,0,0,0,0,0,0,0,0,792.5641025641025,807.0695970695971,813.5164835164835,796.5934065934066,321.9413919413919,-0.405273,0.097412,0.923340,4.231873,-3.588867,-1.929016,0,4,4,4,4,85.000000
2020-01-09 00:01:17.464,0,0,0,0,0,0,0,0,0,0,0,0,0,0,0,0,0,0,0,0,797.3992673992674,807.8754578754579,816.7399267399268,799.4139194139194,609.6336996336996,-0.405273,0.097412,0.923340,4.231873,-3.588867,-1.929016,0,4,4,4,4,85.000000
2020-01-09 00:01:17.465,0,0,0,0,0,0,0,0,0,0,0,0,0,0,0,0,0,0,0,0,795.3846153846154,811.9047619047619,815.5311355311355,806.6666666666667,1018.608058608059,-0.405273,0.097412,0.923340,4.231873,-3.588867,-1.929016,0,4,4,4,4,85.000000
2020-01-09 00:01:17.465,0,0,0,0,0,0,0,0,0,0,0,0,0,0,0,0,0,0,0,0,788.9377289377289,815.5311355311355,812.3076923076924,803.4432234432235,907.8021978021978,-0.405273,0.097412,0.923340,4.231873,-3.588867,-1.929016,0,4,4,4,4,85.000000
2020-01-09 00:01:17.465,0,0,0,0,0,0,0,0,0,0,0,0,0,0,0,0,0,0,0,0,783.6996336996338,814.7252747252747,810.6959706959707,797.8021978021978,500.0366300366301,-0.405273,0.097412,0.923340,4.231873,-3.588867,-1.929016,0,4,4,4,4,85.000000
2020-01-09 00:01:17.465,0,0,0,0,0,0,0,0,0,0,0,0,0,0,0,0,0,0,0,0,787.7289377289378,811.9047619047619,807.0695970695971,803.040293040293,497.6190476190476,-0.405273,0.097412,0.923340,4.231873,-3.588867,-1.929016,0,4,4,4,4,85.000000
2020-01-09 00:01:17.465,0,0,0,0,0,0,0,0,0,0,0,0,0,0,0,0,0,0,0,0,796.1904761904763,809.0842490842491,808.6813186813187,815.5311355311355,1209.59706959707,-0.405273,0.097412,0.923340,4.231873,-3.588867,-1.929016,0,4,4,4,4,85.000000
2020-01-09 00:01:17.465,0,0,0,0,0,0,0,0,0,0,0,0,0,0,0,0,0,0,0,0,790.952380952381,807.4725274725275,811.0989010989011,809.4871794871796,1302.271062271062,-0.400269,0.098877,0.918091,4.426270,-3.790741,-2.257996,0,4,4,4,4,85.000000
2020-01-09 00:01:17.465,0,0,0,0,0,0,0,0,0,0,0,0,0,0,0,0,0,0,0,0,783.2967032967033,809.4871794871796,811.0989010989011,795.7875457875458,730.1098901098901,-0.400269,0.098877,0.918091,4.426270,-3.790741,-2.257996,0,4,4,4,4,85.000000
2020-01-09 00:01:17.466,0,0,0,0,0,0,0,0,0,0,0,0,0,0,0,0,0,0,0,0,784.9084249084249,808.6813186813187,810.2930402930403,800.2197802197802,577.8021978021978,-0.400269,0.098877,0.918091,4.426270,-3.790741,-2.257996,0,4,4,4,4,85.000000
2020-01-09 00:01:17.466,0,0,0,0,0,0,0,0,0,0,0,0,0,0,0,0,0,0,0,0,792.1611721611722,807.8754578754579,810.2930402930403,807.4725274725275,872.7472527472528,-0.400269,0.098877,0.918091,4.426270,-3.790741,-2.257996,0,4,4,4,4,85.000000
2020-01-09 00:01:17.466,0,0,0,0,0,0,0,0,0,0,0,0,0,0,0,0,0,0,0,0,794.1758241758242,808.6813186813187,809.4871794871796,803.4432234432235,1053.260073260073,-0.400269,0.098877,0.918091,4.426270,-3.790741,-2.257996,0,4,4,4,4,85.000000
2020-01-09 00:01:17.466,0,0,0,0,0,0,0,0,0,0,0,0,0,0,0,0,0,0,0,0,792.1611721611722,808.2783882783883,805.4578754578755,798.2051282051282,805.0549450549451,-0.400269,0.098877,0.918091,4.426270,-3.790741,-2.257996,0,4,4,4,4,85.000000
2020-01-09 00:01:17.466,0,0,0,0,0,0,0,0,0,0,0,0,0,0,0,0,0,0,0,0,791.3553113553114,801.4285714285714,804.2490842490843,805.0549450549451,675.7142857142858,-0.400269,0.098877,0.918091,4.426270,-3.790741,-2.257996,0,4,4,4,4,85.000000
2020-01-09 00:01:17.466,0,0,0,0,0,0,0,0,0,0,0,0,0,0,0,0,0,0,0,0,787.7289377289378,799.4139194139194,809.4871794871796,813.5164835164835,874.7619047619048,-0.400269,0.098877,0.918091,4.426270,-3.790741,-2.257996,0,4,4,4,4,85.000000
2020-01-09 00:01:17.466,0,0,0,0,0,0,0,0,0,0,0,0,0,0,0,0,0,0,0,0,787.3260073260074,804.2490842490843,813.5164835164835,811.9047619047619,1008.937728937729,-0.400269,0.098877,0.918091,4.426270,-3.790741,-2.257996,0,4,4,4,4,85.000000
2020-01-09 00:01:17.467,0,0,0,0,0,0,0,0,0,0,0,0,0,0,0,0,0,0,0,0,781.2820512820513,808.6813186813187,807.4725274725275,796.1904761904763,853.0036630036631,-0.400269,0.098877,0.918091,4.426270,-3.790741,-2.257996,0,4,4,4,4,85.000000
2020-01-09 00:01:17.467,0,0,0,0,0,0,0,0,0,0,0,0,0,0,0,0,0,0,0,0,779.6703296703297,809.8901098901099,806.6666666666667,790.1465201465202,496.8131868131868,-0.400269,0.098877,0.918091,4.426270,-3.790741,-2.257996,0,4,4,4,4,85.000000
2020-01-09 00:01:17.467,0,0,0,0,0,0,0,0,0,0,0,0,0,0,0,0,0,0,0,0,789.7435897435897,811.0989010989011,810.2930402930403,804.2490842490843,622.5274725274726,-0.400269,0.098877,0.918091,4.426270,-3.790741,-2.257996,0,4,4,4,4,85.000000
2020-01-09 00:01:17.467,0,0,0,0,0,0,0,0,0,0,0,0,0,0,0,0,0,0,0,0,791.3553113553114,814.7252747252747,813.1135531135532,811.0989010989011,966.6300366300367,-0.401611,0.097656,0.919250,4.762726,-3.297272,-1.532745,0,4,4,4,4,85.000000
2020-01-09 00:01:17.467,0,0,0,0,0,0,0,0,0,0,0,0,0,0,0,0,0,0,0,0,790.952380952381,809.8901098901099,811.5018315018315,805.0549450549451,927.948717948718,-0.401611,0.097656,0.919250,4.762726,-3.297272,-1.532745,0,4,4,4,4,85.000000
2020-01-09 00:01:17.467,0,0,0,0,0,0,0,0,0,0,0,0,0,0,0,0,0,0,0,0,789.7435897435897,807.4725274725275,805.4578754578755,794.1758241758242,659.1941391941392,-0.401611,0.097656,0.919250,4.762726,-3.297272,-1.532745,0,4,4,4,4,85.000000
2020-01-09 00:01:17.467,0,0,0,0,0,0,0,0,0,0,0,0,0,0,0,0,0,0,0,0,789.7435897435897,812.7106227106227,804.6520146520147,796.996336996337,558.0586080586081,-0.401611,0.097656,0.919250,4.762726,-3.297272,-1.532745,0,4,4,4,4,85.000000
2020-01-09 00:01:17.468,0,0,0,0,0,0,0,0,0,0,0,0,0,0,0,0,0,0,0,0,800.6227106227107,814.7252747252747,808.2783882783883,813.919413919414,889.6703296703297,-0.401611,0.097656,0.919250,4.762726,-3.297272,-1.532745,0,4,4,4,4,85.000000
2020-01-09 00:01:17.468,0,0,0,0,0,0,0,0,0,0,0,0,0,0,0,0,0,0,0,0,796.996336996337,810.6959706959707,809.0842490842491,811.9047619047619,1011.355311355311,-0.401611,0.097656,0.919250,4.762726,-3.297272,-1.532745,0,4,4,4,4,85.000000
2020-01-09 00:01:17.468,0,0,0,0,0,0,0,0,0,0,0,0,0,0,0,0,0,0,0,0,788.9377289377289,806.2637362637363,807.0695970695971,796.5934065934066,728.4981684981685,-0.401611,0.097656,0.919250,4.762726,-3.297272,-1.532745,0,4,4,4,4,85.000000
2020-01-09 00:01:17.468,0,0,0,0,0,0,0,0,0,0,0,0,0,0,0,0,0,0,0,0,796.5934065934066,810.6959706959707,808.6813186813187,799.0109890109891,485.9340659340659,-0.401611,0.097656,0.919250,4.762726,-3.297272,-1.532745,0,4,4,4,4,85.000000
2020-01-09 00:01:17.468,0,0,0,0,0,0,0,0,0,0,0,0,0,0,0,0,0,0,0,0,802.2344322344322,814.3223443223443,809.0842490842491,813.1135531135532,668.0586080586081,-0.401611,0.097656,0.919250,4.762726,-3.297272,-1.532745,0,4,4,4,4,85.000000
2020-01-09 00:01:17.468,0,0,0,0,0,0,0,0,0,0,0,0,0,0,0,0,0,0,0,0,799.4139194139194,812.7106227106227,805.8608058608058,816.7399267399268,1056.483516483516,-0.401611,0.097656,0.919250,4.762726,-3.297272,-1.532745,0,4,4,4,4,85.000000
2020-01-09 00:01:17.468,0,0,0,0,0,0,0,0,0,0,0,0,0,0,0,0,0,0,0,0,790.5494505494506,812.7106227106227,805.0549450549451,808.2783882783883,985.9706959706961,-0.401611,0.097656,0.919250,4.762726,-3.297272,-1.532745,0,4,4,4,4,85.000000
2020-01-09 00:01:17.468,0,0,0,0,0,0,0,0,0,0,0,0,0,0,0,0,0,0,0,0,782.0879120879121,813.5164835164835,807.8754578754579,799.0109890109891,606.007326007326,-0.401611,0.097656,0.919250,4.762726,-3.297272,-1.532745,0,4,4,4,4,85.000000
2020-01-09 00:01:17.469,0,0,0,0,0,0,0,0,0,0,0,0,0,0,0,0,0,0,0,0,787.3260073260074,810.2930402930403,809.4871794871796,803.4432234432235,843.7362637362637,-0.405212,0.099792,0.918335,4.463654,-3.603821,-1.099091,0,4,4,4,4,85.000000
2020-01-09 00:01:17.469,0,0,0,0,0,0,0,0,0,0,0,0,0,0,0,0,0,0,0,0,798.6080586080586,810.2930402930403,811.9047619047619,805.4578754578755,1137.875457875458,-0.405212,0.099792,0.918335,4.463654,-3.603821,-1.099091,0,4,4,4,4,85.000000
2020-01-09 00:01:17.469,0,0,0,0,0,0,0,0,0,0,0,0,0,0,0,0,0,0,0,0,791.3553113553114,810.2930402930403,812.7106227106227,794.1758241758242,848.974358974359,-0.405212,0.099792,0.918335,4.463654,-3.603821,-1.099091,0,4,4,4,4,85.000000
2020-01-09 00:01:17.469,0,0,0,0,0,0,0,0,0,0,0,0,0,0,0,0,0,0,0,0,786.1172161172161,810.2930402930403,811.0989010989011,788.5347985347986,533.8827838827839,-0.405212,0.099792,0.918335,4.463654,-3.603821,-1.099091,0,4,4,4,4,85.000000
2020-01-09 00:01:17.469,0,0,0,0,0,0,0,0,0,0,0,0,0,0,0,0,0,0,0,0,795.3846153846154,810.6959706959707,814.7252747252747,797.3992673992674,599.9633699633699,-0.405212,0.099792,0.918335,4.463654,-3.603821,-1.099091,0,4,4,4,4,85.000000
2020-01-09 00:01:17.469,0,0,0,0,0,0,0,0,0,0,0,0,0,0,0,0,0,0,0,0,801.8315018315019,806.6666666666667,815.5311355311355,811.0989010989011,1223.699633699634,-0.405212,0.099792,0.918335,4.463654,-3.603821,-1.099091,0,4,4,4,4,85.000000
2020-01-09 00:01:17.469,0,0,0,0,0,0,0,0,0,0,0,0,0,0,0,0,0,0,0,0,798.6080586080586,807.0695970695971,811.9047619047619,806.2637362637363,1342.564102564103,-0.405212,0.099792,0.918335,4.463654,-3.603821,-1.099091,0,4,4,4,4,85.000000
2020-01-09 00:01:17.469,0,0,0,0,0,0,0,0,0,0,0,0,0,0,0,0,0,0,0,0,788.9377289377289,807.0695970695971,810.6959706959707,794.981684981685,598.3516483516484,-0.405212,0.099792,0.918335,4.463654,-3.603821,-1.099091,0,4,4,4,4,85.000000
2020-01-09 00:01:17.469,0,0,0,0,0,0,0,0,0,0,0,0,0,0,0,0,0,0,0,0,793.3699633699634,809.0842490842491,812.3076923076924,799.4139194139194,427.5091575091575,-0.405212,0.099792,0.918335,4.463654,-3.603821,-1.099091,0,4,4,4,4,85.000000
2020-01-09 00:01:17.470,0,0,0,0,0,0,0,0,0,0,0,0,0,0,0,0,0,0,0,0,804.6520146520147,813.5164835164835,819.5604395604396,809.8901098901099,913.8461538461539,-0.405212,0.099792,0.918335,4.463654,-3.603821,-1.099091,0,4,4,4,4,85.000000
2020-01-09 00:01:17.470,0,0,0,0,0,0,0,0,0,0,0,0,0,0,0,0,0,0,0,0,800.2197802197802,810.6959706959707,818.3516483516484,801.025641025641,1143.113553113553,-0.405212,0.099792,0.918335,4.463654,-3.603821,-1.099091,0,4,4,4,4,85.000000
2020-01-09 00:01:17.470,0,0,0,0,0,0,0,0,0,0,0,0,0,0,0,0,0,0,0,0,791.7582417582418,804.6520146520147,809.4871794871796,784.5054945054945,696.2637362637363,-0.405212,0.099792,0.918335,4.463654,-3.603821,-1.099091,0,4,4,4,4,85.000000
2020-01-09 00:01:17.470,0,0,0,0,0,0,0,0,0,0,0,0,0,0,0,0,0,0,0,0,795.3846153846154,805.0549450549451,807.0695970695971,784.9084249084249,400.1098901098901,-0.405212,0.099792,0.918335,4.463654,-3.603821,-1.099091,0,4,4,4,4,85.000000
2020-01-09 00:01:17.470,0,0,0,0,0,0,0,0,0,0,0,0,0,0,0,0,0,0,0,0,807.8754578754579,806.6666666666667,810.6959706959707,801.8315018315019,871.1355311355312,-0.405212,0.099792,0.918335,4.463654,-3.603821,-1.099091,0,4,4,4,4,85.000000
2020-01-09 00:01:17.470,0,0,0,0,0,0,0,0,0,0,0,0,0,0,0,0,0,0,0,0,813.1135531135532,807.8754578754579,809.4871794871796,808.6813186813187,1174.945054945055,-0.405212,0.099792,0.918335,4.463654,-3.603821,-1.099091,0,4,4,4,4,85.000000
2020-01-09 00:01:17.470,0,0,0,0,0,0,0,0,0,0,0,0,0,0,0,0,0,0,0,0,800.2197802197802,813.5164835164835,805.8608058608058,797.3992673992674,806.6666666666667,-0.405212,0.099792,0.918335,4.463654,-3.603821,-1.099091,0,4,4,4,4,85.000000
2020-01-09 00:01:17.471,0,0,0,0,0,0,0,0,0,0,0,0,0,0,0,0,0,0,0,0,791.3553113553114,815.1282051282052,805.4578754578755,792.967032967033,481.9047619047619,-0.405212,0.099792,0.918335,4.463654,-3.603821,-1.099091,0,4,4,4,4,85.000000
2020-01-09 00:01:17.471,0,0,0,0,0,0,0,0,0,0,0,0,0,0,0,0,0,0,0,0,805.8608058608058,814.7252747252747,808.6813186813187,802.2344322344322,772.4175824175825,-0.405212,0.099792,0.918335,4.463654,-3.603821,-1.099091,0,4,4,4,4,85.000000
2020-01-09 00:01:17.471,0,0,0,0,0,0,0,0,0,0,0,0,0,0,0,0,0,0,0,0,817.1428571428571,811.0989010989011,815.1282051282052,808.6813186813187,1186.227106227106,-0.405212,0.099792,0.918335,4.463654,-3.603821,-1.099091,0,4,4,4,4,85.000000
2020-01-09 00:01:17.471,0,0,0,0,0,0,0,0,0,0,0,0,0,0,0,0,0,0,0,0,807.4725274725275,807.0695970695971,813.919413919414,804.6520146520147,876.3736263736264,-0.405212,0.099792,0.918335,4.463654,-3.603821,-1.099091,0,4,4,4,4,85.000000
2020-01-09 00:01:17.471,0,0,0,0,0,0,0,0,0,0,0,0,0,0,0,0,0,0,0,0,797.8021978021978,806.6666666666667,804.6520146520147,794.981684981685,386.007326007326,-0.405212,0.099792,0.918335,4.463654,-3.603821,-1.099091,0,4,4,4,4,85.000000
2020-01-09 00:01:17.471,0,0,0,0,0,0,0,0,0,0,0,0,0,0,0,0,0,0,0,0,799.8168498168499,809.4871794871796,803.4432234432235,805.8608058608058,740.1831501831502,-0.405212,0.099792,0.918335,4.463654,-3.603821,-1.099091,0,4,4,4,4,85.000000
2020-01-09 00:01:17.471,0,0,0,0,0,0,0,0,0,0,0,0,0,0,0,0,0,0,0,0,804.6520146520147,814.3223443223443,810.6959706959707,817.1428571428571,1021.025641025641,-0.405212,0.099792,0.918335,4.463654,-3.603821,-1.099091,0,4,4,4,4,85.000000
2020-01-09 00:01:17.471,0,0,0,0,0,0,0,0,0,0,0,0,0,0,0,0,0,0,0,0,803.4432234432235,812.3076923076924,811.0989010989011,815.1282051282052,851.7948717948718,-0.405212,0.099792,0.918335,4.463654,-3.603821,-1.099091,0,4,4,4,4,85.000000
2020-01-09 00:01:17.472,0,0,0,0,0,0,0,0,0,0,0,0,0,0,0,0,0,0,0,0,796.1904761904763,809.8901098901099,807.4725274725275,807.4725274725275,538.7179487179487,-0.403870,0.100281,0.916138,4.381409,-3.521576,-2.026215,0,4,4,4,4,85.000000
2020-01-09 00:01:17.472,0,0,0,0,0,0,0,0,0,0,0,0,0,0,0,0,0,0,0,0,796.5934065934066,811.5018315018315,805.4578754578755,805.0549450549451,485.5311355311355,-0.403870,0.100281,0.916138,4.381409,-3.521576,-2.026215,0,4,4,4,4,85.000000
2020-01-09 00:01:17.472,0,0,0,0,0,0,0,0,0,0,0,0,0,0,0,0,0,0,0,0,808.2783882783883,810.6959706959707,808.2783882783883,816.7399267399268,855.4212454212454,-0.403870,0.100281,0.916138,4.381409,-3.521576,-2.026215,0,4,4,4,4,85.000000
2020-01-09 00:01:17.472,0,0,0,0,0,0,0,0,0,0,0,0,0,0,0,0,0,0,0,0,809.8901098901099,811.0989010989011,809.8901098901099,812.3076923076924,1030.695970695971,-0.403870,0.100281,0.916138,4.381409,-3.521576,-2.026215,0,4,4,4,4,85.000000
2020-01-09 00:01:17.472,0,0,0,0,0,0,0,0,0,0,0,0,0,0,0,0,0,0,0,0,796.1904761904763,810.6959706959707,807.8754578754579,797.8021978021978,753.8827838827839,-0.403870,0.100281,0.916138,4.381409,-3.521576,-2.026215,0,4,4,4,4,85.000000
2020-01-09 00:01:17.472,0,0,0,0,0,0,0,0,0,0,0,0,0,0,0,0,0,0,0,0,794.5787545787546,813.1135531135532,810.6959706959707,799.4139194139194,515.3479853479854,-0.403870,0.100281,0.916138,4.381409,-3.521576,-2.026215,0,4,4,4,4,85.000000
2020-01-09 00:01:17.472,0,0,0,0,0,0,0,0,0,0,0,0,0,0,0,0,0,0,0,0,806.2637362637363,817.948717948718,815.934065934066,813.919413919414,756.3003663003664,-0.403870,0.100281,0.916138,4.381409,-3.521576,-2.026215,0,4,4,4,4,85.000000
2020-01-09 00:01:17.472,0,0,0,0,0,0,0,0,0,0,0,0,0,0,0,0,0,0,0,0,810.2930402930403,813.5164835164835,815.1282051282052,817.1428571428571,1070.989010989011,-0.403870,0.100281,0.916138,4.381409,-3.521576,-2.026215,0,4,4,4,4,85.000000
2020-01-09 00:01:17.472,0,0,0,0,0,0,0,0,0,0,0,0,0,0,0,0,0,0,0,0,794.1758241758242,809.4871794871796,807.8754578754579,801.4285714285714,893.2967032967033,-0.403870,0.100281,0.916138,4.381409,-3.521576,-2.026215,0,4,4,4,4,85.000000
2020-01-09 00:01:17.473,0,0,0,0,0,0,0,0,0,0,0,0,0,0,0,0,0,0,0,0,787.3260073260074,810.6959706959707,807.8754578754579,792.5641025641025,443.2234432234432,-0.403870,0.100281,0.916138,4.381409,-3.521576,-2.026215,0,4,4,4,4,85.000000
2020-01-09 00:01:17.473,0,0,0,0,0,0,0,0,0,0,0,0,0,0,0,0,0,0,0,0,796.5934065934066,808.6813186813187,809.8901098901099,799.4139194139194,587.8754578754579,-0.403870,0.100281,0.916138,4.381409,-3.521576,-2.026215,0,4,4,4,4,85.000000
2020-01-09 00:01:17.473,0,0,0,0,0,0,0,0,0,0,0,0,0,0,0,0,0,0,0,0,796.1904761904763,812.3076923076924,811.0989010989011,807.0695970695971,1065.347985347985,-0.403870,0.100281,0.916138,4.381409,-3.521576,-2.026215,0,4,4,4,4,85.000000
2020-01-09 00:01:17.473,0,0,0,0,0,0,0,0,0,0,0,0,0,0,0,0,0,0,0,0,789.3406593406594,813.1135531135532,811.9047619047619,808.2783882783883,1242.234432234432,-0.405334,0.102417,0.922974,4.261780,-3.813171,-1.502838,0,4,4,4,4,85.000000
2020-01-09 00:01:17.473,0,0,0,0,0,0,0,0,0,0,0,0,0,0,0,0,0,0,0,0,784.1025641025641,806.6666666666667,809.4871794871796,791.7582417582418,882.8205128205128,-0.405334,0.102417,0.922974,4.261780,-3.813171,-1.502838,0,4,4,4,4,85.000000
2020-01-09 00:01:17.473,0,0,0,0,0,0,0,0,0,0,0,0,0,0,0,0,0,0,0,0,793.7728937728938,807.4725274725275,811.5018315018315,791.3553113553114,565.3113553113553,-0.405334,0.102417,0.922974,4.261780,-3.813171,-1.502838,0,4,4,4,4,85.000000
2020-01-09 00:01:17.473,0,0,0,0,0,0,0,0,0,0,0,0,0,0,0,0,0,0,0,0,805.4578754578755,811.9047619047619,817.5457875457876,810.6959706959707,890.4761904761905,-0.405334,0.102417,0.922974,4.261780,-3.813171,-1.502838,0,4,4,4,4,85.000000
2020-01-09 00:01:17.474,0,0,0,0,0,0,0,0,0,0,0,0,0,0,0,0,0,0,0,0,800.2197802197802,809.8901098901099,817.1428571428571,805.0549450549451,1075.824175824176,-0.405334,0.102417,0.922974,4.261780,-3.813171,-1.502838,0,4,4,4,4,85.000000
2020-01-09 00:01:17.474,0,0,0,0,0,0,0,0,0,0,0,0,0,0,0,0,0,0,0,0,791.7582417582418,808.6813186813187,814.3223443223443,790.1465201465202,844.1391941391942,-0.405334,0.102417,0.922974,4.261780,-3.813171,-1.502838,0,4,4,4,4,85.000000
2020-01-09 00:01:17.474,0,0,0,0,0,0,0,0,0,0,0,0,0,0,0,0,0,0,0,0,789.7435897435897,811.5018315018315,810.2930402930403,790.1465201465202,576.5934065934066,-0.405334,0.102417,0.922974,4.261780,-3.813171,-1.502838,0,4,4,4,4,85.000000
2020-01-09 00:01:17.474,0,0,0,0,0,0,0,0,0,0,0,0,0,0,0,0,0,0,0,0,797.3992673992674,811.9047619047619,809.8901098901099,807.8754578754579,849.3772893772895,-0.405334,0.102417,0.922974,4.261780,-3.813171,-1.502838,0,4,4,4,4,85.000000
2020-01-09 00:01:17.474,0,0,0,0,0,0,0,0,0,0,0,0,0,0,0,0,0,0,0,0,806.2637362637363,810.2930402930403,812.7106227106227,817.948717948718,1297.838827838828,-0.405334,0.102417,0.922974,4.261780,-3.813171,-1.502838,0,4,4,4,4,85.000000
2020-01-09 00:01:17.474,0,0,0,0,0,0,0,0,0,0,0,0,0,0,0,0,0,0,0,0,796.1904761904763,812.7106227106227,811.0989010989011,801.8315018315019,844.9450549450549,-0.405334,0.102417,0.922974,4.261780,-3.813171,-1.502838,0,4,4,4,4,85.000000
2020-01-09 00:01:17.474,0,0,0,0,0,0,0,0,0,0,0,0,0,0,0,0,0,0,0,0,789.7435897435897,813.919413919414,809.4871794871796,792.5641025641025,450.4761904761905,-0.405334,0.102417,0.922974,4.261780,-3.813171,-1.502838,0,4,4,4,4,85.000000
2020-01-09 00:01:17.474,0,0,0,0,0,0,0,0,0,0,0,0,0,0,0,0,0,0,0,0,805.4578754578755,816.7399267399268,814.3223443223443,807.4725274725275,740.1831501831502,-0.405334,0.102417,0.922974,4.261780,-3.813171,-1.502838,0,4,4,4,4,85.000000
2020-01-09 00:01:17.474,0,0,0,0,0,0,0,0,0,0,0,0,0,0,0,0,0,0,0,0,811.5018315018315,819.1575091575091,821.1721611721612,811.9047619047619,998.8644688644689,-0.403870,0.101685,0.918823,4.291687,-3.409424,-1.854248,0,4,4,4,4,85.000000
2020-01-09 00:01:17.475,0,0,0,0,0,0,0,0,0,0,0,0,0,0,0,0,0,0,0,0,798.2051282051282,815.934065934066,817.1428571428571,803.4432234432235,840.5128205128206,-0.403870,0.101685,0.918823,4.291687,-3.409424,-1.854248,0,4,4,4,4,85.000000
2020-01-09 00:01:17.475,0,0,0,0,0,0,0,0,0,0,0,0,0,0,0,0,0,0,0,0,788.9377289377289,812.3076923076924,813.919413919414,803.4432234432235,540.3296703296703,-0.403870,0.101685,0.918823,4.291687,-3.409424,-1.854248,0,4,4,4,4,85.000000
2020-01-09 00:01:17.475,0,0,0,0,0,0,0,0,0,0,0,0,0,0,0,0,0,0,0,0,796.5934065934066,813.919413919414,816.7399267399268,816.3369963369963,660.4029304029305,-0.403870,0.101685,0.918823,4.291687,-3.409424,-1.854248,0,4,4,4,4,85.000000
2020-01-09 00:01:17.475,0,0,0,0,0,0,0,0,0,0,0,0,0,0,0,0,0,0,0,0,805.4578754578755,818.3516483516484,818.7545787545788,826.8131868131868,1000.879120879121,-0.403870,0.101685,0.918823,4.291687,-3.409424,-1.854248,0,4,4,4,4,85.000000
2020-01-09 00:01:17.475,0,0,0,0,0,0,0,0,0,0,0,0,0,0,0,0,0,0,0,0,796.5934065934066,817.1428571428571,819.1575091575091,813.919413919414,1014.175824175824,-0.403870,0.101685,0.918823,4.291687,-3.409424,-1.854248,0,4,4,4,4,85.000000
2020-01-09 00:01:17.475,0,0,0,0,0,0,0,0,0,0,0,0,0,0,0,0,0,0,0,0,790.5494505494506,810.2930402930403,816.3369963369963,803.040293040293,715.6043956043957,-0.403870,0.101685,0.918823,4.291687,-3.409424,-1.854248,0,4,4,4,4,85.000000
2020-01-09 00:01:17.475,0,0,0,0,0,0,0,0,0,0,0,0,0,0,0,0,0,0,0,0,799.8168498168499,803.4432234432235,813.5164835164835,813.5164835164835,647.9120879120879,-0.403870,0.101685,0.918823,4.291687,-3.409424,-1.854248,0,4,4,4,4,85.000000
2020-01-09 00:01:17.475,0,0,0,0,0,0,0,0,0,0,0,0,0,0,0,0,0,0,0,0,804.6520146520147,807.8754578754579,818.7545787545788,826.007326007326,925.5311355311355,-0.403870,0.101685,0.918823,4.291687,-3.409424,-1.854248,0,4,4,4,4,85.000000
2020-01-09 00:01:17.475,0,0,0,0,0,0,0,0,0,0,0,0,0,0,0,0,0,0,0,0,792.1611721611722,811.5018315018315,816.7399267399268,812.7106227106227,1011.758241758242,-0.403870,0.101685,0.918823,4.291687,-3.409424,-1.854248,0,4,4,4,4,85.000000
2020-01-09 00:01:17.476,0,0,0,0,0,0,0,0,0,0,0,0,0,0,0,0,0,0,0,0,784.1025641025641,809.8901098901099,812.3076923076924,795.7875457875458,672.893772893773,-0.403870,0.101685,0.918823,4.291687,-3.409424,-1.854248,0,4,4,4,4,85.000000
2020-01-09 00:01:17.476,0,0,0,0,0,0,0,0,0,0,0,0,0,0,0,0,0,0,0,0,799.4139194139194,809.4871794871796,814.3223443223443,803.040293040293,727.6923076923077,-0.403870,0.101685,0.918823,4.291687,-3.409424,-1.854248,0,4,4,4,4,85.000000
2020-01-09 00:01:17.476,0,0,0,0,0,0,0,0,0,0,0,0,0,0,0,0,0,0,0,0,812.7106227106227,809.0842490842491,814.3223443223443,810.6959706959707,1136.263736263736,-0.402527,0.099182,0.919678,4.351501,-3.663635,-1.786957,0,4,4,4,4,85.000000
2020-01-09 00:01:17.476,0,0,0,0,0,0,0,0,0,0,0,0,0,0,0,0,0,0,0,0,803.4432234432235,806.6666666666667,814.3223443223443,801.025641025641,1119.74358974359,-0.402527,0.099182,0.919678,4.351501,-3.663635,-1.786957,0,4,4,4,4,85.000000
2020-01-09 00:01:17.476,0,0,0,0,0,0,0,0,0,0,0,0,0,0,0,0,0,0,0,0,783.2967032967033,805.0549450549451,812.3076923076924,790.952380952381,751.0622710622711,-0.402527,0.099182,0.919678,4.351501,-3.663635,-1.786957,0,4,4,4,4,85.000000
2020-01-09 00:01:17.476,0,0,0,0,0,0,0,0,0,0,0,0,0,0,0,0,0,0,0,0,784.1025641025641,806.6666666666667,811.9047619047619,793.7728937728938,399.7069597069597,-0.402527,0.099182,0.919678,4.351501,-3.663635,-1.786957,0,4,4,4,4,85.000000
2020-01-09 00:01:17.476,0,0,0,0,0,0,0,0,0,0,0,0,0,0,0,0,0,0,0,0,800.2197802197802,807.0695970695971,816.7399267399268,808.2783882783883,638.2417582417582,-0.402527,0.099182,0.919678,4.351501,-3.663635,-1.786957,0,4,4,4,4,85.000000
2020-01-09 00:01:17.476,0,0,0,0,0,0,0,0,0,0,0,0,0,0,0,0,0,0,0,0,803.4432234432235,806.6666666666667,815.5311355311355,811.5018315018315,1079.85347985348,-0.402527,0.099182,0.919678,4.351501,-3.663635,-1.786957,0,4,4,4,4,85.000000
2020-01-09 00:01:17.477,0,0,0,0,0,0,0,0,0,0,0,0,0,0,0,0,0,0,0,0,796.5934065934066,809.0842490842491,811.5018315018315,805.8608058608058,975.0915750915751,-0.402527,0.099182,0.919678,4.351501,-3.663635,-1.786957,0,4,4,4,4,85.000000
2020-01-09 00:01:17.477,0,0,0,0,0,0,0,0,0,0,0,0,0,0,0,0,0,0,0,0,790.952380952381,809.8901098901099,810.2930402930403,807.0695970695971,753.0769230769231,-0.402527,0.099182,0.919678,4.351501,-3.663635,-1.786957,0,4,4,4,4,85.000000
2020-01-09 00:01:17.477,0,0,0,0,0,0,0,0,0,0,0,0,0,0,0,0,0,0,0,0,799.8168498168499,811.0989010989011,810.6959706959707,807.8754578754579,635.4212454212454,-0.402527,0.099182,0.919678,4.351501,-3.663635,-1.786957,0,4,4,4,4,85.000000
2020-01-09 00:01:17.477,0,0,0,0,0,0,0,0,0,0,0,0,0,0,0,0,0,0,0,0,816.7399267399268,811.0989010989011,813.1135531135532,808.6813186813187,844.5421245421246,-0.402527,0.099182,0.919678,4.351501,-3.663635,-1.786957,0,4,4,4,4,85.000000
2020-01-09 00:01:17.477,0,0,0,0,0,0,0,0,0,0,0,0,0,0,0,0,0,0,0,0,809.8901098901099,815.934065934066,815.5311355311355,793.7728937728938,913.040293040293,-0.402527,0.099182,0.919678,4.351501,-3.663635,-1.786957,0,4,4,4,4,85.000000
2020-01-09 00:01:17.477,0,0,0,0,0,0,0,0,0,0,0,0,0,0,0,0,0,0,0,0,790.1465201465202,816.3369963369963,815.5311355311355,778.8644688644689,571.7582417582418,-0.402527,0.099182,0.919678,4.351501,-3.663635,-1.786957,0,4,4,4,4,85.000000
2020-01-09 00:01:17.477,0,0,0,0,0,0,0,0,0,0,0,0,0,0,0,0,0,0,0,0,792.1611721611722,813.5164835164835,816.7399267399268,790.5494505494506,545.1648351648352,-0.402527,0.099182,0.919678,4.351501,-3.663635,-1.786957,0,4,4,4,4,85.000000
2020-01-09 00:01:17.477,0,0,0,0,0,0,0,0,0,0,0,0,0,0,0,0,0,0,0,0,806.6666666666667,814.3223443223443,817.5457875457876,805.4578754578755,880.4029304029305,-0.402527,0.099182,0.919678,4.351501,-3.663635,-1.786957,0,4,4,4,4,85.000000
2020-01-09 00:01:17.478,0,0,0,0,0,0,0,0,0,0,0,0,0,0,0,0,0,0,0,0,806.6666666666667,813.1135531135532,815.934065934066,805.4578754578755,1172.930402930403,-0.402527,0.099182,0.919678,4.351501,-3.663635,-1.786957,0,4,4,4,4,85.000000
2020-01-09 00:01:17.478,0,0,0,0,0,0,0,0,0,0,0,0,0,0,0,0,0,0,0,0,792.5641025641025,806.2637362637363,814.7252747252747,796.1904761904763,898.1318681318681,-0.402527,0.099182,0.919678,4.351501,-3.663635,-1.786957,0,4,4,4,4,85.000000
2020-01-09 00:01:17.478,0,0,0,0,0,0,0,0,0,0,0,0,0,0,0,0,0,0,0,0,795.3846153846154,805.4578754578755,814.7252747252747,794.5787545787546,542.7472527472528,-0.402527,0.099182,0.919678,4.351501,-3.663635,-1.786957,0,4,4,4,4,85.000000
2020-01-09 00:01:17.478,0,0,0,0,0,0,0,0,0,0,0,0,0,0,0,0,0,0,0,0,815.1282051282052,809.8901098901099,814.3223443223443,811.0989010989011,892.4908424908425,-0.402527,0.099182,0.919678,4.351501,-3.663635,-1.786957,0,4,4,4,4,85.000000
2020-01-09 00:01:17.478,0,0,0,0,0,0,0,0,0,0,0,0,0,0,0,0,0,0,0,0,818.3516483516484,810.6959706959707,815.5311355311355,814.3223443223443,1228.937728937729,-0.402527,0.099182,0.919678,4.351501,-3.663635,-1.786957,0,4,4,4,4,85.000000
2020-01-09 00:01:17.478,0,0,0,0,0,0,0,0,0,0,0,0,0,0,0,0,0,0,0,0,802.6373626373627,810.6959706959707,814.3223443223443,804.2490842490843,879.5970695970697,-0.402527,0.099182,0.919678,4.351501,-3.663635,-1.786957,0,4,4,4,4,85.000000
2020-01-09 00:01:17.478,0,0,0,0,0,0,0,0,0,0,0,0,0,0,0,0,0,0,0,0,798.2051282051282,812.7106227106227,811.5018315018315,806.2637362637363,407.3626373626374,-0.402527,0.099182,0.919678,4.351501,-3.663635,-1.786957,0,4,4,4,4,85.000000
2020-01-09 00:01:17.478,0,0,0,0,0,0,0,0,0,0,0,0,0,0,0,0,0,0,0,0,812.7106227106227,811.9047619047619,811.0989010989011,818.3516483516484,608.021978021978,-0.402527,0.099182,0.919678,4.351501,-3.663635,-1.786957,0,4,4,4,4,85.000000
2020-01-09 00:01:17.478,0,0,0,0,0,0,0,0,0,0,0,0,0,0,0,0,0,0,0,0,816.3369963369963,805.8608058608058,813.5164835164835,824.7985347985348,1140.29304029304,-0.402527,0.099182,0.919678,4.351501,-3.663635,-1.786957,0,4,4,4,4,85.000000
2020-01-09 00:01:17.478,0,0,0,0,0,0,0,0,0,0,0,0,0,0,0,0,0,0,0,0,802.2344322344322,807.4725274725275,816.3369963369963,815.1282051282052,956.1538461538462,-0.402527,0.099182,0.919678,4.351501,-3.663635,-1.786957,0,4,4,4,4,85.000000
2020-01-09 00:01:17.479,0,0,0,0,0,0,0,0,0,0,0,0,0,0,0,0,0,0,0,0,800.6227106227107,812.3076923076924,813.919413919414,806.6666666666667,498.8278388278388,-0.404480,0.098816,0.921448,4.329071,-3.686066,-1.674805,0,4,4,4,4,85.000000
2020-01-09 00:01:17.479,0,0,0,0,0,0,0,0,0,0,0,0,0,0,0,0,0,0,0,0,817.1428571428571,815.5311355311355,816.3369963369963,822.7838827838829,562.0879120879121,-0.404480,0.098816,0.921448,4.329071,-3.686066,-1.674805,0,4,4,4,4,85.000000
2020-01-09 00:01:17.479,0,0,0,0,0,0,0,0,0,0,0,0,0,0,0,0,0,0,0,0,826.4102564102565,815.934065934066,819.5604395604396,832.8571428571429,926.3369963369963,-0.404480,0.098816,0.921448,4.329071,-3.686066,-1.674805,0,4,4,4,4,85.000000
2020-01-09 00:01:17.479,0,0,0,0,0,0,0,0,0,0,0,0,0,0,0,0,0,0,0,0,810.2930402930403,813.919413919414,817.5457875457876,823.1868131868132,1073.003663003663,-0.404480,0.098816,0.921448,4.329071,-3.686066,-1.674805,0,4,4,4,4,85.000000
2020-01-09 00:01:17.479,0,0,0,0,0,0,0,0,0,0,0,0,0,0,0,0,0,0,0,0,798.2051282051282,809.8901098901099,817.1428571428571,811.9047619047619,721.2454212454213,-0.404480,0.098816,0.921448,4.329071,-3.686066,-1.674805,0,4,4,4,4,85.000000
2020-01-09 00:01:17.479,0,0,0,0,0,0,0,0,0,0,0,0,0,0,0,0,0,0,0,0,810.6959706959707,810.2930402930403,818.3516483516484,816.7399267399268,555.6410256410256,-0.404480,0.098816,0.921448,4.329071,-3.686066,-1.674805,0,4,4,4,4,85.000000
2020-01-09 00:01:17.479,0,0,0,0,0,0,0,0,0,0,0,0,0,0,0,0,0,0,0,0,820.7692307692308,815.1282051282052,819.96336996337,831.6483516483516,1174.542124542125,-0.404480,0.098816,0.921448,4.329071,-3.686066,-1.674805,0,4,4,4,4,85.000000
2020-01-09 00:01:17.479,0,0,0,0,0,0,0,0,0,0,0,0,0,0,0,0,0,0,0,0,812.3076923076924,815.5311355311355,820.7692307692308,827.6190476190476,1538.388278388278,-0.404480,0.098816,0.921448,4.329071,-3.686066,-1.674805,0,4,4,4,4,85.000000
2020-01-09 00:01:17.480,0,0,0,0,0,0,0,0,0,0,0,0,0,0,0,0,0,0,0,0,799.8168498168499,811.9047619047619,817.5457875457876,805.8608058608058,806.6666666666667,-0.404480,0.098816,0.921448,4.329071,-3.686066,-1.674805,0,4,4,4,4,85.000000
2020-01-09 00:01:17.480,0,0,0,0,0,0,0,0,0,0,0,0,0,0,0,0,0,0,0,0,797.3992673992674,811.0989010989011,814.7252747252747,802.2344322344322,404.5421245421246,-0.404480,0.098816,0.921448,4.329071,-3.686066,-1.674805,0,4,4,4,4,85.000000
2020-01-09 00:01:17.480,0,0,0,0,0,0,0,0,0,0,0,0,0,0,0,0,0,0,0,0,804.6520146520147,817.5457875457876,819.5604395604396,815.1282051282052,727.2893772893773,-0.404480,0.098816,0.921448,4.329071,-3.686066,-1.674805,0,4,4,4,4,85.000000
2020-01-09 00:01:17.480,0,0,0,0,0,0,0,0,0,0,0,0,0,0,0,0,0,0,0,0,805.4578754578755,819.5604395604396,820.7692307692308,818.7545787545788,1021.025641025641,-0.404480,0.098816,0.921448,4.329071,-3.686066,-1.674805,0,4,4,4,4,85.000000
2020-01-09 00:01:17.480,0,0,0,0,0,0,0,0,0,0,0,0,0,0,0,0,0,0,0,0,794.981684981685,813.5164835164835,817.1428571428571,806.6666666666667,852.1978021978023,-0.403381,0.100037,0.917786,4.336548,-3.618774,-1.570129,0,4,4,4,4,85.000000
2020-01-09 00:01:17.480,0,0,0,0,0,0,0,0,0,0,0,0,0,0,0,0,0,0,0,0,785.3113553113553,811.5018315018315,813.1135531135532,804.6520146520147,565.3113553113553,-0.403381,0.100037,0.917786,4.336548,-3.618774,-1.570129,0,4,4,4,4,85.000000
2020-01-09 00:01:17.480,0,0,0,0,0,0,0,0,0,0,0,0,0,0,0,0,0,0,0,0,784.9084249084249,817.1428571428571,816.7399267399268,819.5604395604396,790.1465201465202,-0.403381,0.100037,0.917786,4.336548,-3.618774,-1.570129,0,4,4,4,4,85.000000
2020-01-09 00:01:17.480,0,0,0,0,0,0,0,0,0,0,0,0,0,0,0,0,0,0,0,0,790.952380952381,820.3663003663004,818.7545787545788,823.992673992674,1046.813186813187,-0.403381,0.100037,0.917786,4.336548,-3.618774,-1.570129,0,4,4,4,4,85.000000
2020-01-09 00:01:17.480,0,0,0,0,0,0,0,0,0,0,0,0,0,0,0,0,0,0,0,0,785.7142857142858,812.3076923076924,812.3076923076924,811.5018315018315,955.7509157509157,-0.403381,0.100037,0.917786,4.336548,-3.618774,-1.570129,0,4,4,4,4,85.000000
2020-01-09 00:01:17.480,0,0,0,0,0,0,0,0,0,0,0,0,0,0,0,0,0,0,0,0,782.4908424908425,808.6813186813187,810.2930402930403,800.6227106227107,691.8315018315019,-0.403381,0.100037,0.917786,4.336548,-3.618774,-1.570129,0,4,4,4,4,85.000000
2020-01-09 00:01:17.481,0,0,0,0,0,0,0,0,0,0,0,0,0,0,0,0,0,0,0,0,792.5641025641025,812.3076923076924,812.7106227106227,808.6813186813187,678.9377289377289,-0.403381,0.100037,0.917786,4.336548,-3.618774,-1.570129,0,4,4,4,4,85.000000
2020-01-09 00:01:17.481,0,0,0,0,0,0,0,0,0,0,0,0,0,0,0,0,0,0,0,0,795.3846153846154,813.5164835164835,817.5457875457876,815.5311355311355,943.2600732600733,-0.403381,0.100037,0.917786,4.336548,-3.618774,-1.570129,0,4,4,4,4,85.000000
2020-01-09 00:01:17.481,0,0,0,0,0,0,0,0,0,0,0,0,0,0,0,0,0,0,0,0,780.4761904761905,812.7106227106227,815.5311355311355,811.9047619047619,1095.970695970696,-0.403381,0.100037,0.917786,4.336548,-3.618774,-1.570129,0,4,4,4,4,85.000000
2020-01-09 00:01:17.481,0,0,0,0,0,0,0,0,0,0,0,0,0,0,0,0,0,0,0,0,780.8791208791209,812.7106227106227,809.8901098901099,807.8754578754579,906.996336996337,-0.403381,0.100037,0.917786,4.336548,-3.618774,-1.570129,0,4,4,4,4,85.000000
2020-01-09 00:01:17.481,0,0,0,0,0,0,0,0,0,0,0,0,0,0,0,0,0,0,0,0,791.3553113553114,815.934065934066,810.2930402930403,811.0989010989011,720.0366300366301,-0.403381,0.100037,0.917786,4.336548,-3.618774,-1.570129,0,4,4,4,4,85.000000
2020-01-09 00:01:17.481,0,0,0,0,0,0,0,0,0,0,0,0,0,0,0,0,0,0,0,0,798.6080586080586,819.5604395604396,816.7399267399268,815.934065934066,848.974358974359,-0.403381,0.100037,0.917786,4.336548,-3.618774,-1.570129,0,4,4,4,4,85.000000
2020-01-09 00:01:17.481,0,0,0,0,0,0,0,0,0,0,0,0,0,0,0,0,0,0,0,0,796.996336996337,818.7545787545788,819.1575091575091,810.6959706959707,1045.604395604396,-0.403687,0.100342,0.918030,4.486084,-3.536530,-1.525269,0,4,4,4,4,85.000000
2020-01-09 00:01:17.481,0,0,0,0,0,0,0,0,0,0,0,0,0,0,0,0,0,0,0,0,790.1465201465202,815.934065934066,810.2930402930403,802.6373626373627,721.2454212454213,-0.403687,0.100342,0.918030,4.486084,-3.536530,-1.525269,0,4,4,4,4,85.000000
2020-01-09 00:01:17.481,0,0,0,0,0,0,0,0,0,0,0,0,0,0,0,0,0,0,0,0,788.9377289377289,812.7106227106227,806.6666666666667,805.4578754578755,363.4432234432235,-0.403687,0.100342,0.918030,4.486084,-3.536530,-1.525269,0,4,4,4,4,85.000000
2020-01-09 00:01:17.481,0,0,0,0,0,0,0,0,0,0,0,0,0,0,0,0,0,0,0,0,790.952380952381,810.6959706959707,811.0989010989011,813.919413919414,597.948717948718,-0.403687,0.100342,0.918030,4.486084,-3.536530,-1.525269,0,4,4,4,4,85.000000
2020-01-09 00:01:17.482,0,0,0,0,0,0,0,0,0,0,0,0,0,0,0,0,0,0,0,0,806.2637362637363,810.6959706959707,814.3223443223443,815.934065934066,1019.413919413919,-0.403687,0.100342,0.918030,4.486084,-3.536530,-1.525269,0,4,4,4,4,85.000000
2020-01-09 00:01:17.482,0,0,0,0,0,0,0,0,0,0,0,0,0,0,0,0,0,0,0,0,806.2637362637363,813.5164835164835,809.8901098901099,807.8754578754579,964.2124542124542,-0.403687,0.100342,0.918030,4.486084,-3.536530,-1.525269,0,4,4,4,4,85.000000
2020-01-09 00:01:17.482,0,0,0,0,0,0,0,0,0,0,0,0,0,0,0,0,0,0,0,0,804.6520146520147,814.7252747252747,808.2783882783883,804.6520146520147,532.2710622710623,-0.403687,0.100342,0.918030,4.486084,-3.536530,-1.525269,0,4,4,4,4,85.000000
2020-01-09 00:01:17.482,0,0,0,0,0,0,0,0,0,0,0,0,0,0,0,0,0,0,0,0,813.1135531135532,816.3369963369963,810.2930402930403,811.9047619047619,602.3809523809524,-0.403687,0.100342,0.918030,4.486084,-3.536530,-1.525269,0,4,4,4,4,85.000000
2020-01-09 00:01:17.482,0,0,0,0,0,0,0,0,0,0,0,0,0,0,0,0,0,0,0,0,819.5604395604396,814.3223443223443,813.919413919414,816.7399267399268,1003.296703296703,-0.403687,0.100342,0.918030,4.486084,-3.536530,-1.525269,0,4,4,4,4,85.000000
2020-01-09 00:01:17.482,0,0,0,0,0,0,0,0,0,0,0,0,0,0,0,0,0,0,0,0,812.3076923076924,809.8901098901099,817.1428571428571,815.1282051282052,947.2893772893773,-0.403687,0.100342,0.918030,4.486084,-3.536530,-1.525269,0,4,4,4,4,85.000000
2020-01-09 00:01:17.482,0,0,0,0,0,0,0,0,0,0,0,0,0,0,0,0,0,0,0,0,806.2637362637363,813.5164835164835,810.6959706959707,808.6813186813187,461.7582417582418,-0.403687,0.100342,0.918030,4.486084,-3.536530,-1.525269,0,4,4,4,4,85.000000
2020-01-09 00:01:17.482,0,0,0,0,0,0,0,0,0,0,0,0,0,0,0,0,0,0,0,0,814.3223443223443,817.1428571428571,810.6959706959707,813.1135531135532,380.7692307692308,-0.403687,0.100342,0.918030,4.486084,-3.536530,-1.525269,0,4,4,4,4,85.000000
2020-01-09 00:01:17.483,0,0,0,0,0,0,0,0,0,0,0,0,0,0,0,0,0,0,0,0,823.5897435897436,816.7399267399268,816.3369963369963,821.978021978022,881.6117216117217,-0.404358,0.100220,0.919678,4.134674,-3.342133,-1.734619,0,4,4,4,4,85.000000
2020-01-09 00:01:17.483,0,0,0,0,0,0,0,0,0,0,0,0,0,0,0,0,0,0,0,0,819.96336996337,818.3516483516484,814.7252747252747,815.934065934066,1160.842490842491,-0.404358,0.100220,0.919678,4.134674,-3.342133,-1.734619,0,4,4,4,4,85.000000
2020-01-09 00:01:17.483,0,0,0,0,0,0,0,0,0,0,0,0,0,0,0,0,0,0,0,0,803.4432234432235,817.1428571428571,813.5164835164835,804.6520146520147,728.901098901099,-0.404358,0.100220,0.919678,4.134674,-3.342133,-1.734619,0,4,4,4,4,85.000000
2020-01-09 00:01:17.483,0,0,0,0,0,0,0,0,0,0,0,0,0,0,0,0,0,0,0,0,799.0109890109891,817.1428571428571,813.919413919414,803.4432234432235,413.8095238095238,-0.404358,0.100220,0.919678,4.134674,-3.342133,-1.734619,0,4,4,4,4,85.000000
2020-01-09 00:01:17.483,0,0,0,0,0,0,0,0,0,0,0,0,0,0,0,0,0,0,0,0,808.2783882783883,817.1428571428571,815.934065934066,815.5311355311355,723.6630036630037,-0.404358,0.100220,0.919678,4.134674,-3.342133,-1.734619,0,4,4,4,4,85.000000
2020-01-09 00:01:17.483,0,0,0,0,0,0,0,0,0,0,0,0,0,0,0,0,0,0,0,0,804.2490842490843,813.5164835164835,813.919413919414,821.5750915750916,1058.498168498169,-0.404358,0.100220,0.919678,4.134674,-3.342133,-1.734619,0,4,4,4,4,85.000000
2020-01-09 00:01:17.483,0,0,0,0,0,0,0,0,0,0,0,0,0,0,0,0,0,0,0,0,792.967032967033,812.3076923076924,809.4871794871796,812.3076923076924,894.1025641025641,-0.404358,0.100220,0.919678,4.134674,-3.342133,-1.734619,0,4,4,4,4,85.000000
2020-01-09 00:01:17.483,0,0,0,0,0,0,0,0,0,0,0,0,0,0,0,0,0,0,0,0,793.7728937728938,810.6959706959707,811.9047619047619,807.4725274725275,547.1794871794872,-0.404358,0.100220,0.919678,4.134674,-3.342133,-1.734619,0,4,4,4,4,85.000000
2020-01-09 00:01:17.483,0,0,0,0,0,0,0,0,0,0,0,0,0,0,0,0,0,0,0,0,809.0842490842491,815.5311355311355,815.5311355311355,815.5311355311355,924.3223443223443,-0.404358,0.100220,0.919678,4.134674,-3.342133,-1.734619,0,4,4,4,4,85.000000
2020-01-09 00:01:17.484,0,0,0,0,0,0,0,0,0,0,0,0,0,0,0,0,0,0,0,0,814.7252747252747,822.7838827838829,816.7399267399268,824.3956043956044,1484.395604395605,-0.404358,0.100220,0.919678,4.134674,-3.342133,-1.734619,0,4,4,4,4,85.000000
2020-01-09 00:01:17.484,0,0,0,0,0,0,0,0,0,0,0,0,0,0,0,0,0,0,0,0,798.2051282051282,817.948717948718,813.919413919414,812.3076923076924,1083.479853479854,-0.404358,0.100220,0.919678,4.134674,-3.342133,-1.734619,0,4,4,4,4,85.000000
2020-01-09 00:01:17.484,0,0,0,0,0,0,0,0,0,0,0,0,0,0,0,0,0,0,0,0,793.7728937728938,817.1428571428571,815.1282051282052,800.2197802197802,481.9047619047619,-0.404358,0.100220,0.919678,4.134674,-3.342133,-1.734619,0,4,4,4,4,85.000000
2020-01-09 00:01:17.484,0,0,0,0,0,0,0,0,0,0,0,0,0,0,0,0,0,0,0,0,805.0549450549451,818.7545787545788,817.948717948718,808.2783882783883,596.3369963369963,-0.404358,0.100220,0.919678,4.134674,-3.342133,-1.734619,0,4,4,4,4,85.000000
2020-01-09 00:01:17.484,0,0,0,0,0,0,0,0,0,0,0,0,0,0,0,0,0,0,0,0,814.7252747252747,818.7545787545788,817.5457875457876,817.1428571428571,980.7326007326008,-0.404358,0.100220,0.919678,4.134674,-3.342133,-1.734619,0,4,4,4,4,85.000000
2020-01-09 00:01:17.484,0,0,0,0,0,0,0,0,0,0,0,0,0,0,0,0,0,0,0,0,808.6813186813187,817.1428571428571,817.5457875457876,814.3223443223443,912.2344322344322,-0.404358,0.100220,0.919678,4.134674,-3.342133,-1.734619,0,4,4,4,4,85.000000
2020-01-09 00:01:17.484,0,0,0,0,0,0,0,0,0,0,0,0,0,0,0,0,0,0,0,0,798.2051282051282,814.7252747252747,812.7106227106227,806.2637362637363,593.1135531135532,-0.404358,0.100220,0.919678,4.134674,-3.342133,-1.734619,0,4,4,4,4,85.000000
2020-01-09 00:01:17.484,0,0,0,0,0,0,0,0,0,0,0,0,0,0,0,0,0,0,0,0,807.0695970695971,811.5018315018315,811.5018315018315,809.4871794871796,651.1355311355312,-0.404358,0.100220,0.919678,4.134674,-3.342133,-1.734619,0,4,4,4,4,85.000000
2020-01-09 00:01:17.484,0,0,0,0,0,0,0,0,0,0,0,0,0,0,0,0,0,0,0,0,818.3516483516484,812.7106227106227,815.5311355311355,820.7692307692308,992.8205128205128,-0.404358,0.100220,0.919678,4.134674,-3.342133,-1.734619,0,4,4,4,4,85.000000
2020-01-09 00:01:17.484,0,0,0,0,0,0,0,0,0,0,0,0,0,0,0,0,0,0,0,0,810.2930402930403,817.1428571428571,815.5311355311355,821.978021978022,1171.318681318681,-0.404358,0.100220,0.919678,4.134674,-3.342133,-1.734619,0,4,4,4,4,85.000000
2020-01-09 00:01:17.485,0,0,0,0,0,0,0,0,0,0,0,0,0,0,0,0,0,0,0,0,792.1611721611722,811.5018315018315,808.6813186813187,805.4578754578755,787.3260073260074,-0.404358,0.100220,0.919678,4.134674,-3.342133,-1.734619,0,4,4,4,4,85.000000
2020-01-09 00:01:17.485,0,0,0,0,0,0,0,0,0,0,0,0,0,0,0,0,0,0,0,0,793.7728937728938,810.2930402930403,808.6813186813187,801.025641025641,484.3223443223443,-0.404358,0.100220,0.919678,4.134674,-3.342133,-1.734619,0,4,4,4,4,85.000000
2020-01-09 00:01:17.485,0,0,0,0,0,0,0,0,0,0,0,0,0,0,0,0,0,0,0,0,811.5018315018315,811.5018315018315,813.5164835164835,813.919413919414,768.3882783882784,-0.404358,0.100220,0.919678,4.134674,-3.342133,-1.734619,0,4,4,4,4,85.000000
2020-01-09 00:01:17.485,0,0,0,0,0,0,0,0,0,0,0,0,0,0,0,0,0,0,0,0,816.3369963369963,813.919413919414,814.7252747252747,817.948717948718,1039.157509157509,-0.404358,0.100220,0.919678,4.134674,-3.342133,-1.734619,0,4,4,4,4,85.000000
2020-01-09 00:01:17.485,0,0,0,0,0,0,0,0,0,0,0,0,0,0,0,0,0,0,0,0,805.8608058608058,813.1135531135532,813.919413919414,812.3076923076924,907.3992673992674,-0.404358,0.100220,0.919678,4.134674,-3.342133,-1.734619,0,4,4,4,4,85.000000
2020-01-09 00:01:17.485,0,0,0,0,0,0,0,0,0,0,0,0,0,0,0,0,0,0,0,0,803.4432234432235,808.6813186813187,810.2930402930403,809.0842490842491,790.5494505494506,-0.402527,0.099792,0.922180,4.530945,-3.558960,-1.667328,0,4,4,4,4,85.000000
2020-01-09 00:01:17.485,0,0,0,0,0,0,0,0,0,0,0,0,0,0,0,0,0,0,0,0,804.6520146520147,807.8754578754579,812.3076923076924,807.0695970695971,841.7216117216118,-0.402527,0.099792,0.922180,4.530945,-3.558960,-1.667328,0,4,4,4,4,85.000000
2020-01-09 00:01:17.485,0,0,0,0,0,0,0,0,0,0,0,0,0,0,0,0,0,0,0,0,806.6666666666667,809.4871794871796,819.96336996337,810.6959706959707,1094.761904761905,-0.402527,0.099792,0.922180,4.530945,-3.558960,-1.667328,0,4,4,4,4,85.000000
2020-01-09 00:01:17.486,0,0,0,0,0,0,0,0,0,0,0,0,0,0,0,0,0,0,0,0,803.040293040293,811.0989010989011,819.1575091575091,805.4578754578755,960.1831501831502,-0.402527,0.099792,0.922180,4.530945,-3.558960,-1.667328,0,4,4,4,4,85.000000
2020-01-09 00:01:17.486,0,0,0,0,0,0,0,0,0,0,0,0,0,0,0,0,0,0,0,0,798.6080586080586,808.6813186813187,813.919413919414,796.1904761904763,448.4615384615385,-0.402527,0.099792,0.922180,4.530945,-3.558960,-1.667328,0,4,4,4,4,85.000000
2020-01-09 00:01:17.486,0,0,0,0,0,0,0,0,0,0,0,0,0,0,0,0,0,0,0,0,811.9047619047619,807.8754578754579,815.934065934066,807.0695970695971,527.032967032967,-0.402527,0.099792,0.922180,4.530945,-3.558960,-1.667328,0,4,4,4,4,85.000000
2020-01-09 00:01:17.486,0,0,0,0,0,0,0,0,0,0,0,0,0,0,0,0,0,0,0,0,821.5750915750916,807.8754578754579,817.5457875457876,813.919413919414,957.3626373626374,-0.402527,0.099792,0.922180,4.530945,-3.558960,-1.667328,0,4,4,4,4,85.000000
2020-01-09 00:01:17.486,0,0,0,0,0,0,0,0,0,0,0,0,0,0,0,0,0,0,0,0,811.0989010989011,803.040293040293,814.3223443223443,808.2783882783883,1124.578754578755,-0.402527,0.099792,0.922180,4.530945,-3.558960,-1.667328,0,4,4,4,4,85.000000
2020-01-09 00:01:17.486,0,0,0,0,0,0,0,0,0,0,0,0,0,0,0,0,0,0,0,0,798.2051282051282,801.025641025641,809.0842490842491,805.4578754578755,887.6556776556777,-0.402527,0.099792,0.922180,4.530945,-3.558960,-1.667328,0,4,4,4,4,85.000000
2020-01-09 00:01:17.486,0,0,0,0,0,0,0,0,0,0,0,0,0,0,0,0,0,0,0,0,802.6373626373627,810.6959706959707,809.0842490842491,806.6666666666667,493.5897435897436,-0.402527,0.099792,0.922180,4.530945,-3.558960,-1.667328,0,4,4,4,4,85.000000
2020-01-09 00:01:17.486,0,0,0,0,0,0,0,0,0,0,0,0,0,0,0,0,0,0,0,0,810.6959706959707,818.3516483516484,812.7106227106227,815.934065934066,801.8315018315019,-0.402527,0.099792,0.922180,4.530945,-3.558960,-1.667328,0,4,4,4,4,85.000000
2020-01-09 00:01:17.486,0,0,0,0,0,0,0,0,0,0,0,0,0,0,0,0,0,0,0,0,810.2930402930403,814.7252747252747,815.1282051282052,814.7252747252747,1112.490842490843,-0.402527,0.099792,0.922180,4.530945,-3.558960,-1.667328,0,4,4,4,4,85.000000
2020-01-09 00:01:17.486,0,0,0,0,0,0,0,0,0,0,0,0,0,0,0,0,0,0,0,0,806.6666666666667,810.2930402930403,813.5164835164835,802.2344322344322,761.1355311355312,-0.399658,0.102600,0.917847,4.358978,-3.596344,-1.405640,0,4,4,4,4,85.000000
2020-01-09 00:01:17.486,0,0,0,0,0,0,0,0,0,0,0,0,0,0,0,0,0,0,0,0,804.6520146520147,810.2930402930403,807.8754578754579,801.4285714285714,469.010989010989,-0.399658,0.102600,0.917847,4.358978,-3.596344,-1.405640,0,4,4,4,4,85.000000
2020-01-09 00:01:17.487,0,0,0,0,0,0,0,0,0,0,0,0,0,0,0,0,0,0,0,0,810.2930402930403,812.7106227106227,809.0842490842491,810.6959706959707,797.3992673992674,-0.399658,0.102600,0.917847,4.358978,-3.596344,-1.405640,0,4,4,4,4,85.000000
2020-01-09 00:01:17.487,0,0,0,0,0,0,0,0,0,0,0,0,0,0,0,0,0,0,0,0,813.5164835164835,813.1135531135532,816.7399267399268,811.9047619047619,1134.249084249084,-0.399658,0.102600,0.917847,4.358978,-3.596344,-1.405640,0,4,4,4,4,85.000000
2020-01-09 00:01:17.487,0,0,0,0,0,0,0,0,0,0,0,0,0,0,0,0,0,0,0,0,811.5018315018315,814.3223443223443,819.5604395604396,807.8754578754579,793.3699633699634,-0.399658,0.102600,0.917847,4.358978,-3.596344,-1.405640,0,4,4,4,4,85.000000
2020-01-09 00:01:17.487,0,0,0,0,0,0,0,0,0,0,0,0,0,0,0,0,0,0,0,0,801.025641025641,811.0989010989011,817.948717948718,803.4432234432235,471.4285714285714,-0.399658,0.102600,0.917847,4.358978,-3.596344,-1.405640,0,4,4,4,4,85.000000
2020-01-09 00:01:17.487,0,0,0,0,0,0,0,0,0,0,0,0,0,0,0,0,0,0,0,0,795.3846153846154,810.2930402930403,816.3369963369963,808.6813186813187,749.047619047619,-0.399658,0.102600,0.917847,4.358978,-3.596344,-1.405640,0,4,4,4,4,85.000000
2020-01-09 00:01:17.487,0,0,0,0,0,0,0,0,0,0,0,0,0,0,0,0,0,0,0,0,798.6080586080586,809.0842490842491,818.3516483516484,810.2930402930403,1053.663003663004,-0.399658,0.102600,0.917847,4.358978,-3.596344,-1.405640,0,4,4,4,4,85.000000
2020-01-09 00:01:17.487,0,0,0,0,0,0,0,0,0,0,0,0,0,0,0,0,0,0,0,0,798.6080586080586,801.4285714285714,816.7399267399268,807.8754578754579,911.8315018315019,-0.399658,0.102600,0.917847,4.358978,-3.596344,-1.405640,0,4,4,4,4,85.000000
2020-01-09 00:01:17.487,0,0,0,0,0,0,0,0,0,0,0,0,0,0,0,0,0,0,0,0,795.7875457875458,805.4578754578755,815.1282051282052,807.0695970695971,509.3040293040293,-0.399658,0.102600,0.917847,4.358978,-3.596344,-1.405640,0,4,4,4,4,85.000000
2020-01-09 00:01:17.487,0,0,0,0,0,0,0,0,0,0,0,0,0,0,0,0,0,0,0,0,811.5018315018315,813.5164835164835,818.7545787545788,814.7252747252747,553.6263736263736,-0.399658,0.102600,0.917847,4.358978,-3.596344,-1.405640,0,4,4,4,4,85.000000
2020-01-09 00:01:17.487,0,0,0,0,0,0,0,0,0,0,0,0,0,0,0,0,0,0,0,0,821.978021978022,811.9047619047619,819.5604395604396,837.6923076923077,1157.619047619048,-0.399658,0.102600,0.917847,4.358978,-3.596344,-1.405640,0,4,4,4,4,85.000000
2020-01-09 00:01:17.488,0,0,0,0,0,0,0,0,0,0,0,0,0,0,0,0,0,0,0,0,813.5164835164835,811.5018315018315,817.5457875457876,834.4688644688645,1094.761904761905,-0.405151,0.095825,0.915833,4.179535,-4.179535,-1.525269,0,4,4,4,4,85.000000
2020-01-09 00:01:17.488,0,0,0,0,0,0,0,0,0,0,0,0,0,0,0,0,0,0,0,0,805.8608058608058,812.7106227106227,814.3223443223443,815.1282051282052,604.3956043956044,-0.405151,0.095825,0.915833,4.179535,-4.179535,-1.525269,0,4,4,4,4,85.000000
2020-01-09 00:01:17.488,0,0,0,0,0,0,0,0,0,0,0,0,0,0,0,0,0,0,0,0,809.8901098901099,812.7106227106227,814.3223443223443,811.9047619047619,464.5787545787546,-0.405151,0.095825,0.915833,4.179535,-4.179535,-1.525269,0,4,4,4,4,85.000000
2020-01-09 00:01:17.488,0,0,0,0,0,0,0,0,0,0,0,0,0,0,0,0,0,0,0,0,821.978021978022,814.3223443223443,815.934065934066,825.2014652014652,751.4652014652015,-0.405151,0.095825,0.915833,4.179535,-4.179535,-1.525269,0,4,4,4,4,85.000000
2020-01-09 00:01:17.488,0,0,0,0,0,0,0,0,0,0,0,0,0,0,0,0,0,0,0,0,821.5750915750916,815.934065934066,816.7399267399268,826.007326007326,1064.139194139194,-0.405151,0.095825,0.915833,4.179535,-4.179535,-1.525269,0,4,4,4,4,85.000000
2020-01-09 00:01:17.488,0,0,0,0,0,0,0,0,0,0,0,0,0,0,0,0,0,0,0,0,798.6080586080586,807.0695970695971,811.9047619047619,801.025641025641,828.8278388278388,-0.405151,0.095825,0.915833,4.179535,-4.179535,-1.525269,0,4,4,4,4,85.000000
2020-01-09 00:01:17.488,0,0,0,0,0,0,0,0,0,0,0,0,0,0,0,0,0,0,0,0,795.7875457875458,805.8608058608058,803.8461538461539,802.6373626373627,693.4432234432235,-0.405151,0.095825,0.915833,4.179535,-4.179535,-1.525269,0,4,4,4,4,85.000000
2020-01-09 00:01:17.488,0,0,0,0,0,0,0,0,0,0,0,0,0,0,0,0,0,0,0,0,811.5018315018315,815.5311355311355,803.040293040293,818.7545787545788,940.8424908424909,-0.405151,0.095825,0.915833,4.179535,-4.179535,-1.525269,0,4,4,4,4,85.000000
2020-01-09 00:01:17.488,0,0,0,0,0,0,0,0,0,0,0,0,0,0,0,0,0,0,0,0,813.1135531135532,815.934065934066,807.4725274725275,821.1721611721612,1090.732600732601,-0.405151,0.095825,0.915833,4.179535,-4.179535,-1.525269,0,4,4,4,4,85.000000
2020-01-09 00:01:17.489,0,0,0,0,0,0,0,0,0,0,0,0,0,0,0,0,0,0,0,0,811.5018315018315,813.1135531135532,806.6666666666667,810.2930402930403,867.5091575091575,-0.405151,0.095825,0.915833,4.179535,-4.179535,-1.525269,0,4,4,4,4,85.000000
2020-01-09 00:01:17.489,0,0,0,0,0,0,0,0,0,0,0,0,0,0,0,0,0,0,0,0,809.0842490842491,814.3223443223443,804.6520146520147,808.2783882783883,463.3699633699634,-0.405151,0.095825,0.915833,4.179535,-4.179535,-1.525269,0,4,4,4,4,85.000000
2020-01-09 00:01:17.489,0,0,0,0,0,0,0,0,0,0,0,0,0,0,0,0,0,0,0,0,813.1135531135532,812.7106227106227,806.6666666666667,819.5604395604396,547.1794871794872,-0.405151,0.095825,0.915833,4.179535,-4.179535,-1.525269,0,4,4,4,4,85.000000
2020-01-09 00:01:17.489,0,0,0,0,0,0,0,0,0,0,0,0,0,0,0,0,0,0,0,0,818.7545787545788,815.1282051282052,812.3076923076924,822.7838827838829,959.3772893772895,-0.400391,0.104736,0.916748,4.987030,-3.536530,-1.600037,0,4,4,4,4,85.000000
2020-01-09 00:01:17.489,0,0,0,0,0,0,0,0,0,0,0,0,0,0,0,0,0,0,0,0,809.8901098901099,818.3516483516484,811.0989010989011,813.919413919414,952.9304029304029,-0.400391,0.104736,0.916748,4.987030,-3.536530,-1.600037,0,4,4,4,4,85.000000
2020-01-09 00:01:17.489,0,0,0,0,0,0,0,0,0,0,0,0,0,0,0,0,0,0,0,0,797.8021978021978,814.3223443223443,806.2637362637363,799.0109890109891,535.0915750915751,-0.400391,0.104736,0.916748,4.987030,-3.536530,-1.600037,0,4,4,4,4,85.000000
2020-01-09 00:01:17.489,0,0,0,0,0,0,0,0,0,0,0,0,0,0,0,0,0,0,0,0,797.3992673992674,809.4871794871796,809.0842490842491,803.8461538461539,450.4761904761905,-0.400391,0.104736,0.916748,4.987030,-3.536530,-1.600037,0,4,4,4,4,85.000000
2020-01-09 00:01:17.489,0,0,0,0,0,0,0,0,0,0,0,0,0,0,0,0,0,0,0,0,808.2783882783883,806.6666666666667,813.1135531135532,819.96336996337,925.5311355311355,-0.400391,0.104736,0.916748,4.987030,-3.536530,-1.600037,0,4,4,4,4,85.000000
2020-01-09 00:01:17.489,0,0,0,0,0,0,0,0,0,0,0,0,0,0,0,0,0,0,0,0,815.1282051282052,809.4871794871796,815.934065934066,819.96336996337,1064.945054945055,-0.400391,0.104736,0.916748,4.987030,-3.536530,-1.600037,0,4,4,4,4,85.000000
2020-01-09 00:01:17.489,0,0,0,0,0,0,0,0,0,0,0,0,0,0,0,0,0,0,0,0,808.6813186813187,811.5018315018315,809.8901098901099,800.2197802197802,707.948717948718,-0.400391,0.104736,0.916748,4.987030,-3.536530,-1.600037,0,4,4,4,4,85.000000
2020-01-09 00:01:17.490,0,0,0,0,0,0,0,0,0,0,0,0,0,0,0,0,0,0,0,0,803.4432234432235,813.919413919414,804.2490842490843,795.3846153846154,608.8278388278388,-0.400391,0.104736,0.916748,4.987030,-3.536530,-1.600037,0,4,4,4,4,85.000000
2020-01-09 00:01:17.490,0,0,0,0,0,0,0,0,0,0,0,0,0,0,0,0,0,0,0,0,808.2783882783883,817.5457875457876,811.9047619047619,810.6959706959707,805.0549450549451,-0.400391,0.104736,0.916748,4.987030,-3.536530,-1.600037,0,4,4,4,4,85.000000
2020-01-09 00:01:17.490,0,0,0,0,0,0,0,0,0,0,0,0,0,0,0,0,0,0,0,0,803.8461538461539,811.0989010989011,815.1282051282052,818.7545787545788,1038.754578754579,-0.400391,0.104736,0.916748,4.987030,-3.536530,-1.600037,0,4,4,4,4,85.000000
2020-01-09 00:01:17.490,0,0,0,0,0,0,0,0,0,0,0,0,0,0,0,0,0,0,0,0,795.3846153846154,805.8608058608058,809.4871794871796,813.1135531135532,1020.622710622711,-0.400391,0.104736,0.916748,4.987030,-3.536530,-1.600037,0,4,4,4,4,85.000000
2020-01-09 00:01:17.490,0,0,0,0,0,0,0,0,0,0,0,0,0,0,0,0,0,0,0,0,796.996336996337,806.6666666666667,805.8608058608058,812.3076923076924,596.7399267399268,-0.400391,0.104736,0.916748,4.987030,-3.536530,-1.600037,0,4,4,4,4,85.000000
2020-01-09 00:01:17.490,0,0,0,0,0,0,0,0,0,0,0,0,0,0,0,0,0,0,0,0,806.6666666666667,813.5164835164835,809.8901098901099,821.978021978022,668.4615384615385,-0.400391,0.104736,0.916748,4.987030,-3.536530,-1.600037,0,4,4,4,4,85.000000
2020-01-09 00:01:17.490,0,0,0,0,0,0,0,0,0,0,0,0,0,0,0,0,0,0,0,0,809.4871794871796,811.9047619047619,809.0842490842491,819.1575091575091,1042.783882783883,-0.400391,0.104736,0.916748,4.987030,-3.536530,-1.600037,0,4,4,4,4,85.000000
2020-01-09 00:01:17.490,0,0,0,0,0,0,0,0,0,0,0,0,0,0,0,0,0,0,0,0,798.6080586080586,806.2637362637363,802.6373626373627,802.6373626373627,966.6300366300367,-0.400391,0.104736,0.916748,4.987030,-3.536530,-1.600037,0,4,4,4,4,85.000000
2020-01-09 00:01:17.490,0,0,0,0,0,0,0,0,0,0,0,0,0,0,0,0,0,0,0,0,799.8168498168499,808.6813186813187,802.2344322344322,796.5934065934066,572.967032967033,-0.400391,0.104736,0.916748,4.987030,-3.536530,-1.600037,0,4,4,4,4,85.000000
2020-01-09 00:01:17.491,0,0,0,0,0,0,0,0,0,0,0,0,0,0,0,0,0,0,0,0,811.5018315018315,807.8754578754579,804.2490842490843,797.8021978021978,465.7875457875458,-0.400391,0.104736,0.916748,4.987030,-3.536530,-1.600037,0,4,4,4,4,85.000000
2020-01-09 00:01:17.491,0,0,0,0,0,0,0,0,0,0,0,0,0,0,0,0,0,0,0,0,815.5311355311355,804.6520146520147,804.6520146520147,805.4578754578755,1103.223443223443,-0.400391,0.104736,0.916748,4.987030,-3.536530,-1.600037,0,4,4,4,4,85.000000
2020-01-09 00:01:17.491,0,0,0,0,0,0,0,0,0,0,0,0,0,0,0,0,0,0,0,0,804.2490842490843,807.4725274725275,805.8608058608058,809.4871794871796,1434.029304029304,-0.400391,0.104736,0.916748,4.987030,-3.536530,-1.600037,0,4,4,4,4,85.000000
2020-01-09 00:01:17.491,0,0,0,0,0,0,0,0,0,0,0,0,0,0,0,0,0,0,0,0,786.9230769230769,806.6666666666667,803.040293040293,797.3992673992674,739.3772893772893,-0.400391,0.104736,0.916748,4.987030,-3.536530,-1.600037,0,4,4,4,4,85.000000
2020-01-09 00:01:17.491,0,0,0,0,0,0,0,0,0,0,0,0,0,0,0,0,0,0,0,0,797.3992673992674,805.8608058608058,804.2490842490843,805.8608058608058,479.0842490842491,-0.400391,0.104736,0.916748,4.987030,-3.536530,-1.600037,0,4,4,4,4,85.000000
2020-01-09 00:01:17.491,0,0,0,0,0,0,0,0,0,0,0,0,0,0,0,0,0,0,0,0,813.919413919414,809.8901098901099,810.6959706959707,818.7545787545788,844.1391941391942,-0.400391,0.104736,0.916748,4.987030,-3.536530,-1.600037,0,4,4,4,4,85.000000
2020-01-09 00:01:17.491,0,0,0,0,0,0,0,0,0,0,0,0,0,0,0,0,0,0,0,0,806.2637362637363,809.4871794871796,810.6959706959707,803.4432234432235,902.5641025641025,-0.400391,0.104736,0.916748,4.987030,-3.536530,-1.600037,0,4,4,4,4,85.000000
2020-01-09 00:01:17.491,0,0,0,0,0,0,0,0,0,0,0,0,0,0,0,0,0,0,0,0,786.5201465201466,806.6666666666667,806.6666666666667,788.1318681318681,512.5274725274726,-0.400391,0.104736,0.916748,4.987030,-3.536530,-1.600037,0,4,4,4,4,85.000000
2020-01-09 00:01:17.491,0,0,0,0,0,0,0,0,0,0,0,0,0,0,0,0,0,0,0,0,790.1465201465202,807.4725274725275,803.8461538461539,791.3553113553114,408.1684981684982,-0.406372,0.100159,0.919556,4.403839,-2.848663,-1.375732,0,4,4,4,4,85.000000
2020-01-09 00:01:17.491,0,0,0,0,0,0,0,0,0,0,0,0,0,0,0,0,0,0,0,0,807.4725274725275,807.4725274725275,806.2637362637363,805.0549450549451,787.7289377289378,-0.406372,0.100159,0.919556,4.403839,-2.848663,-1.375732,0,4,4,4,4,85.000000
2020-01-09 00:01:17.492,0,0,0,0,0,0,0,0,0,0,0,0,0,0,0,0,0,0,0,0,803.4432234432235,806.2637362637363,808.6813186813187,807.8754578754579,1010.14652014652,-0.406372,0.100159,0.919556,4.403839,-2.848663,-1.375732,0,4,4,4,4,85.000000
2020-01-09 00:01:17.492,0,0,0,0,0,0,0,0,0,0,0,0,0,0,0,0,0,0,0,0,789.3406593406594,801.8315018315019,807.0695970695971,796.1904761904763,824.3956043956044,-0.406372,0.100159,0.919556,4.403839,-2.848663,-1.375732,0,4,4,4,4,85.000000
2020-01-09 00:01:17.492,0,0,0,0,0,0,0,0,0,0,0,0,0,0,0,0,0,0,0,0,793.3699633699634,799.8168498168499,808.6813186813187,798.6080586080586,467.8021978021978,-0.406372,0.100159,0.919556,4.403839,-2.848663,-1.375732,0,4,4,4,4,85.000000
2020-01-09 00:01:17.492,0,0,0,0,0,0,0,0,0,0,0,0,0,0,0,0,0,0,0,0,805.8608058608058,807.0695970695971,813.919413919414,817.5457875457876,647.5091575091575,-0.406372,0.100159,0.919556,4.403839,-2.848663,-1.375732,0,4,4,4,4,85.000000
2020-01-09 00:01:17.492,0,0,0,0,0,0,0,0,0,0,0,0,0,0,0,0,0,0,0,0,808.2783882783883,809.0842490842491,815.934065934066,819.1575091575091,1074.615384615385,-0.406372,0.100159,0.919556,4.403839,-2.848663,-1.375732,0,4,4,4,4,85.000000
2020-01-09 00:01:17.492,0,0,0,0,0,0,0,0,0,0,0,0,0,0,0,0,0,0,0,0,794.5787545787546,807.0695970695971,813.919413919414,806.2637362637363,901.7582417582418,-0.406372,0.100159,0.919556,4.403839,-2.848663,-1.375732,0,4,4,4,4,85.000000
2020-01-09 00:01:17.492,0,0,0,0,0,0,0,0,0,0,0,0,0,0,0,0,0,0,0,0,782.893772893773,806.2637362637363,807.8754578754579,796.5934065934066,571.7582417582418,-0.406372,0.100159,0.919556,4.403839,-2.848663,-1.375732,0,4,4,4,4,85.000000
2020-01-09 00:01:17.492,0,0,0,0,0,0,0,0,0,0,0,0,0,0,0,0,0,0,0,0,794.1758241758242,804.6520146520147,806.6666666666667,807.8754578754579,908.2051282051282,-0.406372,0.100159,0.919556,4.403839,-2.848663,-1.375732,0,4,4,4,4,85.000000
2020-01-09 00:01:17.492,0,0,0,0,0,0,0,0,0,0,0,0,0,0,0,0,0,0,0,0,811.0989010989011,811.0989010989011,814.3223443223443,817.1428571428571,1203.956043956044,-0.406372,0.100159,0.919556,4.403839,-2.848663,-1.375732,0,4,4,4,4,85.000000
2020-01-09 00:01:17.492,0,0,0,0,0,0,0,0,0,0,0,0,0,0,0,0,0,0,0,0,810.6959706959707,813.919413919414,817.1428571428571,810.2930402930403,933.5897435897436,-0.406372,0.100159,0.919556,4.403839,-2.848663,-1.375732,0,4,4,4,4,85.000000
2020-01-09 00:01:17.493,0,0,0,0,0,0,0,0,0,0,0,0,0,0,0,0,0,0,0,0,794.5787545787546,809.0842490842491,813.919413919414,799.8168498168499,557.6556776556777,-0.405945,0.101501,0.917175,4.463654,-3.858032,-1.600037,0,4,4,4,4,85.000000
2020-01-09 00:01:17.493,0,0,0,0,0,0,0,0,0,0,0,0,0,0,0,0,0,0,0,0,793.3699633699634,810.2930402930403,813.5164835164835,800.6227106227107,548.7912087912088,-0.405945,0.101501,0.917175,4.463654,-3.858032,-1.600037,0,4,4,4,4,85.000000
2020-01-09 00:01:17.493,0,0,0,0,0,0,0,0,0,0,0,0,0,0,0,0,0,0,0,0,811.0989010989011,816.3369963369963,818.3516483516484,809.4871794871796,897.7289377289378,-0.405945,0.101501,0.917175,4.463654,-3.858032,-1.600037,0,4,4,4,4,85.000000
2020-01-09 00:01:17.493,0,0,0,0,0,0,0,0,0,0,0,0,0,0,0,0,0,0,0,0,821.5750915750916,819.5604395604396,820.3663003663004,810.6959706959707,1006.117216117216,-0.405945,0.101501,0.917175,4.463654,-3.858032,-1.600037,0,4,4,4,4,85.000000
2020-01-09 00:01:17.493,0,0,0,0,0,0,0,0,0,0,0,0,0,0,0,0,0,0,0,0,810.2930402930403,818.7545787545788,815.934065934066,798.2051282051282,700.2930402930403,-0.405945,0.101501,0.917175,4.463654,-3.858032,-1.600037,0,4,4,4,4,85.000000
2020-01-09 00:01:17.493,0,0,0,0,0,0,0,0,0,0,0,0,0,0,0,0,0,0,0,0,811.9047619047619,815.934065934066,811.0989010989011,799.0109890109891,428.7179487179487,-0.405945,0.101501,0.917175,4.463654,-3.858032,-1.600037,0,4,4,4,4,85.000000
2020-01-09 00:01:17.493,0,0,0,0,0,0,0,0,0,0,0,0,0,0,0,0,0,0,0,0,826.007326007326,809.4871794871796,814.3223443223443,814.7252747252747,706.7399267399268,-0.405945,0.101501,0.917175,4.463654,-3.858032,-1.600037,0,4,4,4,4,85.000000
2020-01-09 00:01:17.493,0,0,0,0,0,0,0,0,0,0,0,0,0,0,0,0,0,0,0,0,821.978021978022,813.919413919414,815.934065934066,817.1428571428571,985.5677655677656,-0.405945,0.101501,0.917175,4.463654,-3.858032,-1.600037,0,4,4,4,4,85.000000
2020-01-09 00:01:17.493,0,0,0,0,0,0,0,0,0,0,0,0,0,0,0,0,0,0,0,0,804.6520146520147,823.5897435897436,809.8901098901099,804.2490842490843,818.3516483516484,-0.405945,0.101501,0.917175,4.463654,-3.858032,-1.600037,0,4,4,4,4,85.000000
2020-01-09 00:01:17.494,0,0,0,0,0,0,0,0,0,0,0,0,0,0,0,0,0,0,0,0,794.5787545787546,821.978021978022,805.0549450549451,793.7728937728938,556.4468864468864,-0.405945,0.101501,0.917175,4.463654,-3.858032,-1.600037,0,4,4,4,4,85.000000
2020-01-09 00:01:17.494,0,0,0,0,0,0,0,0,0,0,0,0,0,0,0,0,0,0,0,0,804.2490842490843,823.1868131868132,808.6813186813187,804.6520146520147,653.5531135531136,-0.405945,0.101501,0.917175,4.463654,-3.858032,-1.600037,0,4,4,4,4,85.000000
2020-01-09 00:01:17.494,0,0,0,0,0,0,0,0,0,0,0,0,0,0,0,0,0,0,0,0,820.7692307692308,829.6336996336996,810.2930402930403,815.934065934066,989.5970695970697,-0.405945,0.101501,0.917175,4.463654,-3.858032,-1.600037,0,4,4,4,4,85.000000
2020-01-09 00:01:17.494,0,0,0,0,0,0,0,0,0,0,0,0,0,0,0,0,0,0,0,0,813.919413919414,825.6043956043957,801.4285714285714,807.0695970695971,1099.194139194139,-0.402283,0.104553,0.913025,4.082336,-3.775787,-1.929016,0,4,4,4,4,85.000000
2020-01-09 00:01:17.494,0,0,0,0,0,0,0,0,0,0,0,0,0,0,0,0,0,0,0,0,796.5934065934066,820.3663003663004,790.952380952381,794.981684981685,797.8021978021978,-0.402283,0.104553,0.913025,4.082336,-3.775787,-1.929016,0,4,4,4,4,85.000000
2020-01-09 00:01:17.494,0,0,0,0,0,0,0,0,0,0,0,0,0,0,0,0,0,0,0,0,803.8461538461539,825.2014652014652,787.3260073260074,798.2051282051282,498.021978021978,-0.402283,0.104553,0.913025,4.082336,-3.775787,-1.929016,0,4,4,4,4,85.000000
2020-01-09 00:01:17.494,0,0,0,0,0,0,0,0,0,0,0,0,0,0,0,0,0,0,0,0,815.1282051282052,825.6043956043957,787.7289377289378,806.6666666666667,835.6776556776557,-0.402283,0.104553,0.913025,4.082336,-3.775787,-1.929016,0,4,4,4,4,85.000000
2020-01-09 00:01:17.494,0,0,0,0,0,0,0,0,0,0,0,0,0,0,0,0,0,0,0,0,806.6666666666667,826.8131868131868,785.3113553113553,793.3699633699634,942.0512820512821,-0.402283,0.104553,0.913025,4.082336,-3.775787,-1.929016,0,4,4,4,4,85.000000
2020-01-09 00:01:17.494,0,0,0,0,0,0,0,0,0,0,0,0,0,0,0,0,0,0,0,0,792.967032967033,828.8278388278388,779.2673992673992,784.1025641025641,587.0695970695971,-0.402283,0.104553,0.913025,4.082336,-3.775787,-1.929016,0,4,4,4,4,85.000000
2020-01-09 00:01:17.494,0,0,0,0,0,0,0,0,0,0,0,0,0,0,0,0,0,0,0,0,796.5934065934066,825.2014652014652,778.4615384615385,789.7435897435897,464.5787545787546,-0.402283,0.104553,0.913025,4.082336,-3.775787,-1.929016,0,4,4,4,4,85.000000
2020-01-09 00:01:17.495,0,0,0,0,0,0,0,0,0,0,0,0,0,0,0,0,0,0,0,0,813.919413919414,828.021978021978,782.0879120879121,802.6373626373627,839.3040293040293,-0.402283,0.104553,0.913025,4.082336,-3.775787,-1.929016,0,4,4,4,4,85.000000
2020-01-09 00:01:17.495,0,0,0,0,0,0,0,0,0,0,0,0,0,0,0,0,0,0,0,0,816.7399267399268,832.0512820512821,782.0879120879121,799.8168498168499,1270.43956043956,-0.402283,0.104553,0.913025,4.082336,-3.775787,-1.929016,0,4,4,4,4,85.000000
2020-01-09 00:01:17.495,0,0,0,0,0,0,0,0,0,0,0,0,0,0,0,0,0,0,0,0,808.6813186813187,834.8717948717949,775.6410256410256,774.0293040293041,898.1318681318681,-0.402283,0.104553,0.913025,4.082336,-3.775787,-1.929016,0,4,4,4,4,85.000000
2020-01-09 00:01:17.495,0,0,0,0,0,0,0,0,0,0,0,0,0,0,0,0,0,0,0,0,809.0842490842491,835.6776556776557,775.2380952380953,775.6410256410256,405.7509157509157,-0.402283,0.104553,0.913025,4.082336,-3.775787,-1.929016,0,4,4,4,4,85.000000
2020-01-09 00:01:17.495,0,0,0,0,0,0,0,0,0,0,0,0,0,0,0,0,0,0,0,0,819.5604395604396,838.0952380952381,779.2673992673992,796.996336996337,649.92673992674,-0.402283,0.104553,0.913025,4.082336,-3.775787,-1.929016,0,4,4,4,4,85.000000
2020-01-09 00:01:17.495,0,0,0,0,0,0,0,0,0,0,0,0,0,0,0,0,0,0,0,0,819.1575091575091,842.1245421245421,777.2527472527473,801.8315018315019,1066.153846153846,-0.401733,0.098022,0.921570,4.127197,-3.596344,-1.674805,0,4,4,4,4,85.000000
2020-01-09 00:01:17.495,0,0,0,0,0,0,0,0,0,0,0,0,0,0,0,0,0,0,0,0,806.6666666666667,842.1245421245421,776.8498168498169,786.1172161172161,931.978021978022,-0.401733,0.098022,0.921570,4.127197,-3.596344,-1.674805,0,4,4,4,4,85.000000
2020-01-09 00:01:17.495,0,0,0,0,0,0,0,0,0,0,0,0,0,0,0,0,0,0,0,0,805.0549450549451,840.5128205128206,774.0293040293041,776.8498168498169,569.3406593406594,-0.401733,0.098022,0.921570,4.127197,-3.596344,-1.674805,0,4,4,4,4,85.000000
2020-01-09 00:01:17.495,0,0,0,0,0,0,0,0,0,0,0,0,0,0,0,0,0,0,0,0,815.5311355311355,841.3186813186813,775.2380952380953,788.9377289377289,715.2014652014652,-0.401733,0.098022,0.921570,4.127197,-3.596344,-1.674805,0,4,4,4,4,85.000000
2020-01-09 00:01:17.495,0,0,0,0,0,0,0,0,0,0,0,0,0,0,0,0,0,0,0,0,819.96336996337,843.7362637362637,778.4615384615385,803.040293040293,1050.842490842491,-0.401733,0.098022,0.921570,4.127197,-3.596344,-1.674805,0,4,4,4,4,85.000000
2020-01-09 00:01:17.496,0,0,0,0,0,0,0,0,0,0,0,0,0,0,0,0,0,0,0,0,814.3223443223443,844.1391941391942,776.0439560439561,792.967032967033,961.7948717948718,-0.401733,0.098022,0.921570,4.127197,-3.596344,-1.674805,0,4,4,4,4,85.000000
2020-01-09 00:01:17.496,0,0,0,0,0,0,0,0,0,0,0,0,0,0,0,0,0,0,0,0,809.0842490842491,840.1098901098901,771.6117216117216,777.6556776556777,634.6153846153846,-0.401733,0.098022,0.921570,4.127197,-3.596344,-1.674805,0,4,4,4,4,85.000000
2020-01-09 00:01:17.496,0,0,0,0,0,0,0,0,0,0,0,0,0,0,0,0,0,0,0,0,821.978021978022,843.7362637362637,774.8351648351648,794.1758241758242,598.7545787545788,-0.401733,0.098022,0.921570,4.127197,-3.596344,-1.674805,0,4,4,4,4,85.000000
2020-01-09 00:01:17.496,0,0,0,0,0,0,0,0,0,0,0,0,0,0,0,0,0,0,0,0,829.6336996336996,847.7655677655678,783.2967032967033,811.5018315018315,876.7765567765568,-0.401733,0.098022,0.921570,4.127197,-3.596344,-1.674805,0,4,4,4,4,85.000000
2020-01-09 00:01:17.496,0,0,0,0,0,0,0,0,0,0,0,0,0,0,0,0,0,0,0,0,815.934065934066,838.0952380952381,784.9084249084249,807.4725274725275,910.2197802197802,-0.401733,0.098022,0.921570,4.127197,-3.596344,-1.674805,0,4,4,4,4,85.000000
2020-01-09 00:01:17.496,0,0,0,0,0,0,0,0,0,0,0,0,0,0,0,0,0,0,0,0,805.4578754578755,832.0512820512821,780.8791208791209,800.6227106227107,530.6593406593407,-0.401733,0.098022,0.921570,4.127197,-3.596344,-1.674805,0,4,4,4,4,85.000000
2020-01-09 00:01:17.496,0,0,0,0,0,0,0,0,0,0,0,0,0,0,0,0,0,0,0,0,814.3223443223443,833.6630036630037,782.4908424908425,805.8608058608058,594.3223443223443,-0.401733,0.098022,0.921570,4.127197,-3.596344,-1.674805,0,4,4,4,4,85.000000
2020-01-09 00:01:17.496,0,0,0,0,0,0,0,0,0,0,0,0,0,0,0,0,0,0,0,0,822.7838827838829,833.6630036630037,791.3553113553114,817.5457875457876,985.5677655677656,-0.401733,0.098022,0.921570,4.127197,-3.596344,-1.674805,0,4,4,4,4,85.000000
2020-01-09 00:01:17.496,0,0,0,0,0,0,0,0,0,0,0,0,0,0,0,0,0,0,0,0,826.8131868131868,836.0805860805862,794.5787545787546,805.8608058608058,1034.322344322344,-0.401733,0.098022,0.921570,4.127197,-3.596344,-1.674805,0,4,4,4,4,85.000000
2020-01-09 00:01:17.497,0,0,0,0,0,0,0,0,0,0,0,0,0,0,0,0,0,0,0,0,820.7692307692308,835.6776556776557,792.967032967033,788.1318681318681,702.3076923076924,-0.401733,0.098022,0.921570,4.127197,-3.596344,-1.674805,0,4,4,4,4,85.000000
2020-01-09 00:01:17.497,0,0,0,0,0,0,0,0,0,0,0,0,0,0,0,0,0,0,0,0,811.5018315018315,830.8424908424909,790.952380952381,787.7289377289378,450.8791208791209,-0.401733,0.098022,0.921570,4.127197,-3.596344,-1.674805,0,4,4,4,4,85.000000
2020-01-09 00:01:17.497,0,0,0,0,0,0,0,0,0,0,0,0,0,0,0,0,0,0,0,0,818.7545787545788,831.2454212454213,794.5787545787546,807.8754578754579,691.4285714285714,-0.401733,0.098022,0.921570,4.127197,-3.596344,-1.674805,0,4,4,4,4,85.000000
2020-01-09 00:01:17.497,0,0,0,0,0,0,0,0,0,0,0,0,0,0,0,0,0,0,0,0,825.2014652014652,832.0512820512821,802.6373626373627,813.919413919414,1065.750915750916,-0.401733,0.098022,0.921570,4.127197,-3.596344,-1.674805,0,4,4,4,4,85.000000
2020-01-09 00:01:17.497,0,0,0,0,0,0,0,0,0,0,0,0,0,0,0,0,0,0,0,0,815.934065934066,828.8278388278388,796.996336996337,801.025641025641,1036.336996336996,-0.401733,0.098022,0.921570,4.127197,-3.596344,-1.674805,0,4,4,4,4,85.000000
2020-01-09 00:01:17.497,0,0,0,0,0,0,0,0,0,0,0,0,0,0,0,0,0,0,0,0,806.2637362637363,826.8131868131868,790.952380952381,799.8168498168499,835.6776556776557,-0.401733,0.098022,0.921570,4.127197,-3.596344,-1.674805,0,4,4,4,4,85.000000
2020-01-09 00:01:17.497,0,0,0,0,0,0,0,0,0,0,0,0,0,0,0,0,0,0,0,0,809.4871794871796,822.3809523809524,797.8021978021978,813.5164835164835,741.3919413919414,-0.401733,0.098022,0.921570,4.127197,-3.596344,-1.674805,0,4,4,4,4,85.000000
2020-01-09 00:01:17.497,0,0,0,0,0,0,0,0,0,0,0,0,0,0,0,0,0,0,0,0,825.6043956043957,822.3809523809524,805.0549450549451,828.021978021978,924.3223443223443,-0.401733,0.098022,0.921570,4.127197,-3.596344,-1.674805,0,4,4,4,4,85.000000
2020-01-09 00:01:17.497,0,0,0,0,0,0,0,0,0,0,0,0,0,0,0,0,0,0,0,0,827.6190476190476,830.8424908424909,806.2637362637363,820.3663003663004,1026.666666666667,-0.401733,0.098022,0.921570,4.127197,-3.596344,-1.674805,0,4,4,4,4,85.000000
2020-01-09 00:01:17.497,0,0,0,0,0,0,0,0,0,0,0,0,0,0,0,0,0,0,0,0,819.96336996337,830.8424908424909,802.6373626373627,805.0549450549451,593.5164835164835,-0.401733,0.098022,0.921570,4.127197,-3.596344,-1.674805,0,4,4,4,4,85.000000
2020-01-09 00:01:17.498,0,0,0,0,0,0,0,0,0,0,0,0,0,0,0,0,0,0,0,0,819.1575091575091,828.8278388278388,799.8168498168499,812.3076923076924,473.4432234432235,-0.400024,0.097351,0.918884,4.224396,-3.828125,-2.086029,0,4,4,4,4,85.000000
2020-01-09 00:01:17.498,0,0,0,0,0,0,0,0,0,0,0,0,0,0,0,0,0,0,0,0,817.1428571428571,827.2161172161173,800.6227106227107,816.3369963369963,892.4908424908425,-0.400024,0.097351,0.918884,4.224396,-3.828125,-2.086029,0,4,4,4,4,85.000000
2020-01-09 00:01:17.498,0,0,0,0,0,0,0,0,0,0,0,0,0,0,0,0,0,0,0,0,814.3223443223443,825.2014652014652,803.040293040293,811.9047619047619,1110.07326007326,-0.400024,0.097351,0.918884,4.224396,-3.828125,-2.086029,0,4,4,4,4,85.000000
2020-01-09 00:01:17.498,0,0,0,0,0,0,0,0,0,0,0,0,0,0,0,0,0,0,0,0,806.2637362637363,826.007326007326,802.6373626373627,807.4725274725275,782.0879120879121,-0.400024,0.097351,0.918884,4.224396,-3.828125,-2.086029,0,4,4,4,4,85.000000
2020-01-09 00:01:17.498,0,0,0,0,0,0,0,0,0,0,0,0,0,0,0,0,0,0,0,0,805.8608058608058,820.7692307692308,802.2344322344322,803.040293040293,470.2197802197803,-0.400024,0.097351,0.918884,4.224396,-3.828125,-2.086029,0,4,4,4,4,85.000000
2020-01-09 00:01:17.498,0,0,0,0,0,0,0,0,0,0,0,0,0,0,0,0,0,0,0,0,812.3076923076924,819.96336996337,805.0549450549451,810.6959706959707,722.8571428571429,-0.400024,0.097351,0.918884,4.224396,-3.828125,-2.086029,0,4,4,4,4,85.000000
2020-01-09 00:01:17.498,0,0,0,0,0,0,0,0,0,0,0,0,0,0,0,0,0,0,0,0,815.934065934066,823.992673992674,808.2783882783883,815.1282051282052,1120.952380952381,-0.400024,0.097351,0.918884,4.224396,-3.828125,-2.086029,0,4,4,4,4,85.000000
2020-01-09 00:01:17.498,0,0,0,0,0,0,0,0,0,0,0,0,0,0,0,0,0,0,0,0,815.1282051282052,822.7838827838829,804.6520146520147,799.8168498168499,1001.684981684982,-0.400024,0.097351,0.918884,4.224396,-3.828125,-2.086029,0,4,4,4,4,85.000000
2020-01-09 00:01:17.498,0,0,0,0,0,0,0,0,0,0,0,0,0,0,0,0,0,0,0,0,811.0989010989011,817.1428571428571,801.4285714285714,788.5347985347986,575.7875457875458,-0.400024,0.097351,0.918884,4.224396,-3.828125,-2.086029,0,4,4,4,4,85.000000
2020-01-09 00:01:17.498,0,0,0,0,0,0,0,0,0,0,0,0,0,0,0,0,0,0,0,0,812.7106227106227,815.1282051282052,805.4578754578755,801.8315018315019,629.7802197802198,-0.400024,0.097351,0.918884,4.224396,-3.828125,-2.086029,0,4,4,4,4,85.000000
2020-01-09 00:01:17.499,0,0,0,0,0,0,0,0,0,0,0,0,0,0,0,0,0,0,0,0,821.5750915750916,819.96336996337,809.8901098901099,821.1721611721612,1215.641025641026,-0.400024,0.097351,0.918884,4.224396,-3.828125,-2.086029,0,4,4,4,4,85.000000
2020-01-09 00:01:17.499,0,0,0,0,0,0,0,0,0,0,0,0,0,0,0,0,0,0,0,0,815.934065934066,825.2014652014652,810.6959706959707,815.1282051282052,1247.472527472527,-0.400024,0.097351,0.918884,4.224396,-3.828125,-2.086029,0,4,4,4,4,85.000000
2020-01-09 00:01:17.499,0,0,0,0,0,0,0,0,0,0,0,0,0,0,0,0,0,0,0,0,796.996336996337,821.1721611721612,807.8754578754579,794.5787545787546,654.7619047619048,-0.400940,0.100525,0.921143,4.844971,-3.304749,-1.742096,0,4,4,4,4,85.000000
2020-01-09 00:01:17.499,0,0,0,0,0,0,0,0,0,0,0,0,0,0,0,0,0,0,0,0,801.8315018315019,818.3516483516484,807.4725274725275,800.2197802197802,579.8168498168499,-0.400940,0.100525,0.921143,4.844971,-3.304749,-1.742096,0,4,4,4,4,85.000000
2020-01-09 00:01:17.499,0,0,0,0,0,0,0,0,0,0,0,0,0,0,0,0,0,0,0,0,814.7252747252747,817.1428571428571,808.6813186813187,815.934065934066,1004.102564102564,-0.400940,0.100525,0.921143,4.844971,-3.304749,-1.742096,0,4,4,4,4,85.000000
2020-01-09 00:01:17.499,0,0,0,0,0,0,0,0,0,0,0,0,0,0,0,0,0,0,0,0,809.0842490842491,810.6959706959707,805.8608058608058,807.8754578754579,1025.457875457875,-0.400940,0.100525,0.921143,4.844971,-3.304749,-1.742096,0,4,4,4,4,85.000000
2020-01-09 00:01:17.499,0,0,0,0,0,0,0,0,0,0,0,0,0,0,0,0,0,0,0,0,799.8168498168499,807.8754578754579,803.8461538461539,788.5347985347986,659.1941391941392,-0.400940,0.100525,0.921143,4.844971,-3.304749,-1.742096,0,4,4,4,4,85.000000
2020-01-09 00:01:17.499,0,0,0,0,0,0,0,0,0,0,0,0,0,0,0,0,0,0,0,0,801.025641025641,811.9047619047619,804.2490842490843,795.3846153846154,683.7728937728938,-0.400940,0.100525,0.921143,4.844971,-3.304749,-1.742096,0,4,4,4,4,85.000000
2020-01-09 00:01:17.499,0,0,0,0,0,0,0,0,0,0,0,0,0,0,0,0,0,0,0,0,813.5164835164835,814.3223443223443,808.2783882783883,817.5457875457876,1166.483516483516,-0.400940,0.100525,0.921143,4.844971,-3.304749,-1.742096,0,4,4,4,4,85.000000
2020-01-09 00:01:17.500,0,0,0,0,0,0,0,0,0,0,0,0,0,0,0,0,0,0,0,0,820.7692307692308,819.96336996337,811.0989010989011,811.9047619047619,1166.080586080586,-0.400940,0.100525,0.921143,4.844971,-3.304749,-1.742096,0,4,4,4,4,85.000000
2020-01-09 00:01:17.500,0,0,0,0,0,0,0,0,0,0,0,0,0,0,0,0,0,0,0,0,806.2637362637363,818.7545787545788,806.2637362637363,792.1611721611722,708.3516483516484,-0.400940,0.100525,0.921143,4.844971,-3.304749,-1.742096,0,4,4,4,4,85.000000
2020-01-09 00:01:17.500,0,0,0,0,0,0,0,0,0,0,0,0,0,0,0,0,0,0,0,0,791.7582417582418,819.5604395604396,805.0549450549451,786.1172161172161,406.5567765567766,-0.400940,0.100525,0.921143,4.844971,-3.304749,-1.742096,0,4,4,4,4,85.000000
2020-01-09 00:01:17.500,0,0,0,0,0,0,0,0,0,0,0,0,0,0,0,0,0,0,0,0,802.2344322344322,824.7985347985348,811.9047619047619,798.6080586080586,628.1684981684982,-0.400940,0.100525,0.921143,4.844971,-3.304749,-1.742096,0,4,4,4,4,85.000000
2020-01-09 00:01:17.500,0,0,0,0,0,0,0,0,0,0,0,0,0,0,0,0,0,0,0,0,811.9047619047619,823.5897435897436,811.0989010989011,804.6520146520147,1015.384615384615,-0.400940,0.100525,0.921143,4.844971,-3.304749,-1.742096,0,4,4,4,4,85.000000
2020-01-09 00:01:17.500,0,0,0,0,0,0,0,0,0,0,0,0,0,0,0,0,0,0,0,0,801.8315018315019,817.1428571428571,801.4285714285714,794.981684981685,861.4652014652015,-0.408752,0.099426,0.919067,4.493561,-3.409424,-1.158905,0,4,4,4,4,85.000000
2020-01-09 00:01:17.500,0,0,0,0,0,0,0,0,0,0,0,0,0,0,0,0,0,0,0,0,796.1904761904763,815.934065934066,801.025641025641,792.967032967033,550.4029304029305,-0.408752,0.099426,0.919067,4.493561,-3.409424,-1.158905,0,4,4,4,4,85.000000
2020-01-09 00:01:17.500,0,0,0,0,0,0,0,0,0,0,0,0,0,0,0,0,0,0,0,0,801.4285714285714,819.96336996337,805.0549450549451,795.7875457875458,678.1318681318681,-0.408752,0.099426,0.919067,4.493561,-3.409424,-1.158905,0,4,4,4,4,85.000000
2020-01-09 00:01:17.500,0,0,0,0,0,0,0,0,0,0,0,0,0,0,0,0,0,0,0,0,807.8754578754579,822.7838827838829,805.0549450549451,800.6227106227107,992.8205128205128,-0.408752,0.099426,0.919067,4.493561,-3.409424,-1.158905,0,4,4,4,4,85.000000
2020-01-09 00:01:17.500,0,0,0,0,0,0,0,0,0,0,0,0,0,0,0,0,0,0,0,0,800.2197802197802,820.3663003663004,806.2637362637363,799.0109890109891,999.6703296703297,-0.408752,0.099426,0.919067,4.493561,-3.409424,-1.158905,0,4,4,4,4,85.000000
2020-01-09 00:01:17.500,0,0,0,0,0,0,0,0,0,0,0,0,0,0,0,0,0,0,0,0,788.1318681318681,821.1721611721612,805.4578754578755,789.7435897435897,665.2380952380953,-0.408752,0.099426,0.919067,4.493561,-3.409424,-1.158905,0,4,4,4,4,85.000000
2020-01-09 00:01:17.501,0,0,0,0,0,0,0,0,0,0,0,0,0,0,0,0,0,0,0,0,792.967032967033,818.3516483516484,802.2344322344322,800.2197802197802,574.5787545787546,-0.408752,0.099426,0.919067,4.493561,-3.409424,-1.158905,0,4,4,4,4,85.000000
2020-01-09 00:01:17.501,0,0,0,0,0,0,0,0,0,0,0,0,0,0,0,0,0,0,0,0,805.0549450549451,818.7545787545788,806.6666666666667,807.0695970695971,801.8315018315019,-0.408752,0.099426,0.919067,4.493561,-3.409424,-1.158905,0,4,4,4,4,85.000000
2020-01-09 00:01:17.501,0,0,0,0,0,0,0,0,0,0,0,0,0,0,0,0,0,0,0,0,805.4578754578755,819.1575091575091,809.8901098901099,796.1904761904763,877.5824175824176,-0.408752,0.099426,0.919067,4.493561,-3.409424,-1.158905,0,4,4,4,4,85.000000
2020-01-09 00:01:17.501,0,0,0,0,0,0,0,0,0,0,0,0,0,0,0,0,0,0,0,0,796.1904761904763,808.2783882783883,805.8608058608058,790.952380952381,760.3296703296703,-0.408752,0.099426,0.919067,4.493561,-3.409424,-1.158905,0,4,4,4,4,85.000000
2020-01-09 00:01:17.501,0,0,0,0,0,0,0,0,0,0,0,0,0,0,0,0,0,0,0,0,794.981684981685,810.2930402930403,801.8315018315019,789.3406593406594,582.6373626373627,-0.408752,0.099426,0.919067,4.493561,-3.409424,-1.158905,0,4,4,4,4,85.000000
2020-01-09 00:01:17.501,0,0,0,0,0,0,0,0,0,0,0,0,0,0,0,0,0,0,0,0,805.0549450549451,812.7106227106227,803.4432234432235,791.7582417582418,763.956043956044,-0.408752,0.099426,0.919067,4.493561,-3.409424,-1.158905,0,4,4,4,4,85.000000
2020-01-09 00:01:17.522,0,0,0,0,0,0,0,0,0,0,0,0,0,0,0,0,0,0,0,0,807.0695970695971,811.0989010989011,806.6666666666667,797.8021978021978,1053.663003663004,-0.405518,0.100708,0.919495,4.261780,-3.947754,-1.644897,0,4,4,4,4,85.000000
2020-01-09 00:01:17.523,0,0,0,0,0,0,0,0,0,0,0,0,0,0,0,0,0,0,0,0,793.3699633699634,813.919413919414,804.2490842490843,790.952380952381,775.2380952380953,-0.405518,0.100708,0.919495,4.261780,-3.947754,-1.644897,0,4,4,4,4,85.000000
2020-01-09 00:01:17.523,0,0,0,0,0,0,0,0,0,0,0,0,0,0,0,0,0,0,0,0,795.7875457875458,813.919413919414,801.025641025641,786.9230769230769,452.8937728937729,-0.405518,0.100708,0.919495,4.261780,-3.947754,-1.644897,0,4,4,4,4,85.000000
2020-01-09 00:01:17.523,0,0,0,0,0,0,0,0,0,0,0,0,0,0,0,0,0,0,0,0,807.4725274725275,815.934065934066,802.2344322344322,796.996336996337,599.9633699633699,-0.405518,0.100708,0.919495,4.261780,-3.947754,-1.644897,0,4,4,4,4,85.000000
2020-01-09 00:01:17.523,0,0,0,0,0,0,0,0,0,0,0,0,0,0,0,0,0,0,0,0,805.0549450549451,816.3369963369963,805.8608058608058,803.8461538461539,1047.216117216117,-0.405518,0.100708,0.919495,4.261780,-3.947754,-1.644897,0,4,4,4,4,85.000000
2020-01-09 00:01:17.523,0,0,0,0,0,0,0,0,0,0,0,0,0,0,0,0,0,0,0,0,802.2344322344322,815.1282051282052,805.0549450549451,801.8315018315019,1218.461538461539,-0.405518,0.100708,0.919495,4.261780,-3.947754,-1.644897,0,4,4,4,4,85.000000
2020-01-09 00:01:17.523,0,0,0,0,0,0,0,0,0,0,0,0,0,0,0,0,0,0,0,0,798.2051282051282,817.5457875457876,803.040293040293,790.952380952381,714.3956043956044,-0.405518,0.100708,0.919495,4.261780,-3.947754,-1.644897,0,4,4,4,4,85.000000
2020-01-09 00:01:17.523,0,0,0,0,0,0,0,0,0,0,0,0,0,0,0,0,0,0,0,0,800.6227106227107,812.7106227106227,809.4871794871796,793.7728937728938,545.1648351648352,-0.405518,0.100708,0.919495,4.261780,-3.947754,-1.644897,0,4,4,4,4,85.000000
2020-01-09 00:01:17.524,0,0,0,0,0,0,0,0,0,0,0,0,0,0,0,0,0,0,0,0,813.919413919414,811.5018315018315,811.9047619047619,804.6520146520147,953.7362637362637,-0.405518,0.100708,0.919495,4.261780,-3.947754,-1.644897,0,4,4,4,4,85.000000
2020-01-09 00:01:17.524,0,0,0,0,0,0,0,0,0,0,0,0,0,0,0,0,0,0,0,0,808.2783882783883,818.3516483516484,808.6813186813187,796.5934065934066,1026.263736263736,-0.405518,0.100708,0.919495,4.261780,-3.947754,-1.644897,0,4,4,4,4,85.000000
2020-01-09 00:01:17.524,0,0,0,0,0,0,0,0,0,0,0,0,0,0,0,0,0,0,0,0,800.6227106227107,821.5750915750916,801.8315018315019,784.5054945054945,611.6483516483516,-0.405518,0.100708,0.919495,4.261780,-3.947754,-1.644897,0,4,4,4,4,85.000000
2020-01-09 00:01:17.524,0,0,0,0,0,0,0,0,0,0,0,0,0,0,0,0,0,0,0,0,812.3076923076924,820.3663003663004,802.6373626373627,799.4139194139194,497.6190476190476,-0.405518,0.100708,0.919495,4.261780,-3.947754,-1.644897,0,4,4,4,4,85.000000
2020-01-09 00:01:17.524,0,0,0,0,0,0,0,0,0,0,0,0,0,0,0,0,0,0,0,0,816.3369963369963,816.7399267399268,810.6959706959707,809.0842490842491,1002.490842490843,-0.405518,0.100708,0.919495,4.261780,-3.947754,-1.644897,0,4,4,4,4,85.000000
2020-01-09 00:01:17.524,0,0,0,0,0,0,0,0,0,0,0,0,0,0,0,0,0,0,0,0,807.8754578754579,815.5311355311355,815.934065934066,800.2197802197802,1174.945054945055,-0.405518,0.100708,0.919495,4.261780,-3.947754,-1.644897,0,4,4,4,4,85.000000
2020-01-09 00:01:17.524,0,0,0,0,0,0,0,0,0,0,0,0,0,0,0,0,0,0,0,0,801.4285714285714,815.1282051282052,814.7252747252747,790.952380952381,719.2307692307693,-0.405518,0.100708,0.919495,4.261780,-3.947754,-1.644897,0,4,4,4,4,85.000000
2020-01-09 00:01:17.524,0,0,0,0,0,0,0,0,0,0,0,0,0,0,0,0,0,0,0,0,805.0549450549451,814.3223443223443,815.1282051282052,795.3846153846154,496.8131868131868,-0.405518,0.100708,0.919495,4.261780,-3.947754,-1.644897,0,4,4,4,4,85.000000
2020-01-09 00:01:17.524,0,0,0,0,0,0,0,0,0,0,0,0,0,0,0,0,0,0,0,0,817.5457875457876,815.1282051282052,821.1721611721612,813.5164835164835,767.1794871794872,-0.405518,0.100708,0.919495,4.261780,-3.947754,-1.644897,0,4,4,4,4,85.000000
2020-01-09 00:01:17.525,0,0,0,0,0,0,0,0,0,0,0,0,0,0,0,0,0,0,0,0,829.2307692307693,815.934065934066,820.3663003663004,829.6336996336996,1006.117216117216,-0.405518,0.100708,0.919495,4.261780,-3.947754,-1.644897,0,4,4,4,4,85.000000
2020-01-09 00:01:17.525,0,0,0,0,0,0,0,0,0,0,0,0,0,0,0,0,0,0,0,0,818.7545787545788,818.7545787545788,811.5018315018315,821.1721611721612,848.1684981684982,-0.405518,0.100708,0.919495,4.261780,-3.947754,-1.644897,0,4,4,4,4,85.000000
2020-01-09 00:01:17.525,0,0,0,0,0,0,0,0,0,0,0,0,0,0,0,0,0,0,0,0,806.2637362637363,819.1575091575091,807.4725274725275,805.8608058608058,619.3040293040293,-0.405518,0.100708,0.919495,4.261780,-3.947754,-1.644897,0,4,4,4,4,85.000000
2020-01-09 00:01:17.525,0,0,0,0,0,0,0,0,0,0,0,0,0,0,0,0,0,0,0,0,813.1135531135532,817.948717948718,808.2783882783883,820.7692307692308,973.0769230769231,-0.405518,0.100708,0.919495,4.261780,-3.947754,-1.644897,0,4,4,4,4,85.000000
2020-01-09 00:01:17.525,0,0,0,0,0,0,0,0,0,0,0,0,0,0,0,0,0,0,0,0,820.3663003663004,820.7692307692308,811.9047619047619,834.4688644688645,1405.421245421245,-0.405518,0.100708,0.919495,4.261780,-3.947754,-1.644897,0,4,4,4,4,85.000000
2020-01-09 00:01:17.525,0,0,0,0,0,0,0,0,0,0,0,0,0,0,0,0,0,0,0,0,808.2783882783883,821.978021978022,809.8901098901099,816.7399267399268,1046.813186813187,-0.405518,0.100708,0.919495,4.261780,-3.947754,-1.644897,0,4,4,4,4,85.000000
2020-01-09 00:01:17.525,0,0,0,0,0,0,0,0,0,0,0,0,0,0,0,0,0,0,0,0,804.2490842490843,819.5604395604396,807.0695970695971,807.8754578754579,479.8901098901099,-0.405518,0.100708,0.919495,4.261780,-3.947754,-1.644897,0,4,4,4,4,85.000000
2020-01-09 00:01:17.525,0,0,0,0,0,0,0,0,0,0,0,0,0,0,0,0,0,0,0,0,817.1428571428571,815.5311355311355,811.9047619047619,814.3223443223443,586.2637362637363,-0.403137,0.101379,0.920227,4.530945,-3.596344,-1.577606,0,4,4,4,4,85.000000
2020-01-09 00:01:17.525,0,0,0,0,0,0,0,0,0,0,0,0,0,0,0,0,0,0,0,0,817.5457875457876,811.0989010989011,816.3369963369963,816.3369963369963,1052.454212454212,-0.403137,0.101379,0.920227,4.530945,-3.596344,-1.577606,0,4,4,4,4,85.000000
2020-01-09 00:01:17.526,0,0,0,0,0,0,0,0,0,0,0,0,0,0,0,0,0,0,0,0,809.8901098901099,814.3223443223443,818.7545787545788,810.2930402930403,1073.809523809524,-0.403137,0.101379,0.920227,4.530945,-3.596344,-1.577606,0,4,4,4,4,85.000000
2020-01-09 00:01:17.526,0,0,0,0,0,0,0,0,0,0,0,0,0,0,0,0,0,0,0,0,799.0109890109891,818.3516483516484,815.934065934066,799.4139194139194,697.4725274725275,-0.403137,0.101379,0.920227,4.530945,-3.596344,-1.577606,0,4,4,4,4,85.000000
2020-01-09 00:01:17.526,0,0,0,0,0,0,0,0,0,0,0,0,0,0,0,0,0,0,0,0,806.2637362637363,819.5604395604396,811.0989010989011,805.8608058608058,597.5457875457876,-0.403137,0.101379,0.920227,4.530945,-3.596344,-1.577606,0,4,4,4,4,85.000000
2020-01-09 00:01:17.526,0,0,0,0,0,0,0,0,0,0,0,0,0,0,0,0,0,0,0,0,816.3369963369963,819.1575091575091,811.9047619047619,819.1575091575091,1056.886446886447,-0.403137,0.101379,0.920227,4.530945,-3.596344,-1.577606,0,4,4,4,4,85.000000
2020-01-09 00:01:17.526,0,0,0,0,0,0,0,0,0,0,0,0,0,0,0,0,0,0,0,0,811.0989010989011,819.96336996337,814.7252747252747,817.1428571428571,1178.974358974359,-0.403137,0.101379,0.920227,4.530945,-3.596344,-1.577606,0,4,4,4,4,85.000000
2020-01-09 00:01:17.526,0,0,0,0,0,0,0,0,0,0,0,0,0,0,0,0,0,0,0,0,801.4285714285714,814.3223443223443,813.5164835164835,805.0549450549451,778.0586080586081,-0.403137,0.101379,0.920227,4.530945,-3.596344,-1.577606,0,4,4,4,4,85.000000
2020-01-09 00:01:17.526,0,0,0,0,0,0,0,0,0,0,0,0,0,0,0,0,0,0,0,0,796.1904761904763,812.7106227106227,810.2930402930403,803.8461538461539,520.5860805860806,-0.403137,0.101379,0.920227,4.530945,-3.596344,-1.577606,0,4,4,4,4,85.000000
2020-01-09 00:01:17.526,0,0,0,0,0,0,0,0,0,0,0,0,0,0,0,0,0,0,0,0,802.6373626373627,818.3516483516484,814.3223443223443,820.3663003663004,788.9377289377289,-0.403137,0.101379,0.920227,4.530945,-3.596344,-1.577606,0,4,4,4,4,85.000000
2020-01-09 00:01:17.527,0,0,0,0,0,0,0,0,0,0,0,0,0,0,0,0,0,0,0,0,815.934065934066,820.7692307692308,817.5457875457876,824.7985347985348,1079.047619047619,-0.403137,0.101379,0.920227,4.530945,-3.596344,-1.577606,0,4,4,4,4,85.000000
2020-01-09 00:01:17.527,0,0,0,0,0,0,0,0,0,0,0,0,0,0,0,0,0,0,0,0,807.4725274725275,818.3516483516484,812.3076923076924,815.1282051282052,915.4578754578755,-0.403137,0.101379,0.920227,4.530945,-3.596344,-1.577606,0,4,4,4,4,85.000000
2020-01-09 00:01:17.589,0,0,0,0,0,0,0,0,0,0,0,0,0,0,0,0,0,0,0,0,802.6373626373627,812.3076923076924,808.6813186813187,811.9047619047619,804.2490842490843,-0.404663,0.099548,0.918030,4.411316,-3.880463,-1.465454,0,4,4,4,4,85.000000
2020-01-09 00:01:17.590,0,0,0,0,0,0,0,0,0,0,0,0,0,0,0,0,0,0,0,0,810.6959706959707,816.7399267399268,812.3076923076924,812.3076923076924,756.7032967032967,-0.404663,0.099548,0.918030,4.411316,-3.880463,-1.465454,0,4,4,4,4,85.000000
2020-01-09 00:01:17.590,0,0,0,0,0,0,0,0,0,0,0,0,0,0,0,0,0,0,0,0,817.5457875457876,822.3809523809524,816.7399267399268,816.3369963369963,928.7545787545788,-0.404663,0.099548,0.918030,4.411316,-3.880463,-1.465454,0,4,4,4,4,85.000000
