TimeStamp,Delta_TP9,Delta_AF7,Delta_AF8,Delta_TP10,Theta_TP9,Theta_AF7,Theta_AF8,Theta_TP10,Alpha_TP9,Alpha_AF7,Alpha_AF8,Alpha_TP10,Beta_TP9,Beta_AF7,Beta_AF8,Beta_TP10,Gamma_TP9,Gamma_AF7,Gamma_AF8,Gamma_TP10,RAW_TP9,RAW_AF7,RAW_AF8,RAW_TP10,AUX_RIGHT,Accelerometer_X,Accelerometer_Y,Accelerometer_Z,Gyro_X,Gyro_Y,Gyro_Z,HeadBandOn,HSI_TP9,HSI_AF7,HSI_AF8,HSI_TP10,Battery,Elements
2020-01-09 00:57:39.230,0.7569233636532049,1.265318672962543,0.8812066479961139,1.097409500065127,0.2771247586257142,0.9814148102394401,0.4086146017364772,0.6474599491034704,0.8627458363641963,0.8366061679122598,0.7242921333271224,0.7827086503689951,0.3223171832738582,0.2973996913142211,0.2672166416463158,0.2570711975807995,0.2624428248766211,-0.3527989619749891,0.2010580804619335,0.1935120895099073,742.6007326007326,740.5860805860806,773.2234432234433,800.2197802197802,1153.589743589744,-0.429138,0.079712,0.908936,4.635620,-3.357086,-1.831818,1,1,1,1,1,80.000000
2020-01-09 00:57:39.230,0.7569233636532049,1.265318672962543,0.8812066479961139,1.097409500065127,0.2771247586257142,0.9814148102394401,0.4086146017364772,0.6474599491034704,0.8627458363641963,0.8366061679122598,0.7242921333271224,0.7827086503689951,0.3223171832738582,0.2973996913142211,0.2672166416463158,0.2570711975807995,0.2624428248766211,-0.3527989619749891,0.2010580804619335,0.1935120895099073,649.1208791208792,727.6923076923077,736.5567765567765,639.4505494505495,675.7142857142858,-0.429138,0.079712,0.908936,4.635620,-3.357086,-1.831818,1,1,1,1,1,80.000000
2020-01-09 00:57:39.231,0.7569233636532049,1.265318672962543,0.8812066479961139,1.097409500065127,0.2771247586257142,0.9814148102394401,0.4086146017364772,0.6474599491034704,0.8627458363641963,0.8366061679122598,0.7242921333271224,0.7827086503689951,0.3223171832738582,0.2973996913142211,0.2672166416463158,0.2570711975807995,0.2624428248766211,-0.3527989619749891,0.2010580804619335,0.1935120895099073,726.0805860805862,726.8864468864469,741.7948717948718,723.2600732600732,565.3113553113553,-0.429138,0.079712,0.908936,4.635620,-3.357086,-1.831818,1,1,1,1,1,80.000000
2020-01-09 00:57:39.231,0.7569233636532049,1.265318672962543,0.8812066479961139,1.097409500065127,0.2771247586257142,0.9814148102394401,0.4086146017364772,0.6474599491034704,0.8627458363641963,0.8366061679122598,0.7242921333271224,0.7827086503689951,0.3223171832738582,0.2973996913142211,0.2672166416463158,0.2570711975807995,0.2624428248766211,-0.3527989619749891,0.2010580804619335,0.1935120895099073,838.4981684981685,738.1684981684982,778.0586080586081,891.2820512820513,886.0439560439561,-0.429138,0.079712,0.908936,4.635620,-3.357086,-1.831818,1,1,1,1,1,80.000000
2020-01-09 00:57:39.231,0.7569233636532049,1.265318672962543,0.8812066479961139,1.097409500065127,0.2771247586257142,0.9814148102394401,0.4086146017364772,0.6474599491034704,0.8627458363641963,0.8366061679122598,0.7242921333271224,0.7827086503689951,0.3223171832738582,0.2973996913142211,0.2672166416463158,0.2570711975807995,0.2624428248766211,-0.3527989619749891,0.2010580804619335,0.1935120895099073,791.7582417582418,742.1978021978023,780.0732600732601,840.1098901098901,978.7179487179487,-0.429138,0.079712,0.908936,4.635620,-3.357086,-1.831818,1,1,1,1,1,80.000000
2020-01-09 00:57:39.231,0.7569233636532049,1.265318672962543,0.8812066479961139,1.097409500065127,0.2771247586257142,0.9814148102394401,0.4086146017364772,0.6474599491034704,0.8627458363641963,0.8366061679122598,0.7242921333271224,0.7827086503689951,0.3223171832738582,0.2973996913142211,0.2672166416463158,0.2570711975807995,0.2624428248766211,-0.3527989619749891,0.2010580804619335,0.1935120895099073,662.4175824175825,734.9450549450549,745.0183150183151,658.3882783882784,800.6227106227107,-0.429138,0.079712,0.908936,4.635620,-3.357086,-1.831818,1,1,1,1,1,80.000000
2020-01-09 00:57:39.232,0.7569233636532049,1.265318672962543,0.8812066479961139,1.097409500065127,0.2771247586257142,0.9814148102394401,0.4086146017364772,0.6474599491034704,0.8627458363641963,0.8366061679122598,0.7242921333271224,0.7827086503689951,0.3223171832738582,0.2973996913142211,0.2672166416463158,0.2570711975807995,0.2624428248766211,-0.3527989619749891,0.2010580804619335,0.1935120895099073,686.5934065934066,731.7216117216118,736.5567765567765,676.5201465201466,871.941391941392,-0.429138,0.079712,0.908936,4.635620,-3.357086,-1.831818,1,1,1,1,1,80.000000
2020-01-09 00:57:39.232,0.7569233636532049,1.265318672962543,0.8812066479961139,1.097409500065127,0.2771247586257142,0.9814148102394401,0.4086146017364772,0.6474599491034704,0.8627458363641963,0.8366061679122598,0.7242921333271224,0.7827086503689951,0.3223171832738582,0.2973996913142211,0.2672166416463158,0.2570711975807995,0.2624428248766211,-0.3527989619749891,0.2010580804619335,0.1935120895099073,817.1428571428571,736.5567765567765,777.6556776556777,858.6446886446887,1154.395604395604,-0.429138,0.079712,0.908936,4.635620,-3.357086,-1.831818,1,1,1,1,1,80.000000
2020-01-09 00:57:39.232,0.7569233636532049,1.265318672962543,0.8812066479961139,1.097409500065127,0.2771247586257142,0.9814148102394401,0.4086146017364772,0.6474599491034704,0.8627458363641963,0.8366061679122598,0.7242921333271224,0.7827086503689951,0.3223171832738582,0.2973996913142211,0.2672166416463158,0.2570711975807995,0.2624428248766211,-0.3527989619749891,0.2010580804619335,0.1935120895099073,814.7252747252747,739.3772893772893,794.1758241758242,877.1794871794872,1126.593406593407,-0.429138,0.079712,0.908936,4.635620,-3.357086,-1.831818,1,1,1,1,1,80.000000
2020-01-09 00:57:39.232,0.7569233636532049,1.265318672962543,0.8812066479961139,1.097409500065127,0.2771247586257142,0.9814148102394401,0.4086146017364772,0.6474599491034704,0.8627458363641963,0.8366061679122598,0.7242921333271224,0.7827086503689951,0.3223171832738582,0.2973996913142211,0.2672166416463158,0.2570711975807995,0.2624428248766211,-0.3527989619749891,0.2010580804619335,0.1935120895099073,686.996336996337,733.3333333333334,766.7765567765568,702.7106227106227,788.9377289377289,-0.429138,0.079712,0.908936,4.635620,-3.357086,-1.831818,1,1,1,1,1,80.000000
2020-01-09 00:57:39.233,0.7569233636532049,1.265318672962543,0.8812066479961139,1.097409500065127,0.2771247586257142,0.9814148102394401,0.4086146017364772,0.6474599491034704,0.8627458363641963,0.8366061679122598,0.7242921333271224,0.7827086503689951,0.3223171832738582,0.2973996913142211,0.2672166416463158,0.2570711975807995,0.2624428248766211,-0.3527989619749891,0.2010580804619335,0.1935120895099073,671.6849816849817,733.3333333333334,757.5091575091575,652.7472527472528,435.970695970696,-0.429138,0.079712,0.908936,4.635620,-3.357086,-1.831818,1,1,1,1,1,80.000000
2020-01-09 00:57:39.233,1.058012524579895,1.218467671016245,0.8449691287016173,1.092485420272109,0.2650482640728161,0.9723212243163912,0.4161924074587145,0.6407490881318072,0.8686634307477863,0.8366061679122598,0.7255107607905034,0.8174551599779863,0.3492305277889224,0.2728446476366345,0.297649070951499,0.2421135214194926,0.2481015347767098,-0.3387784890894636,0.2031871183257699,0.1922337328583812,796.5934065934066,742.1978021978023,782.0879120879121,824.3956043956044,583.4432234432235,-0.429138,0.079712,0.908936,4.635620,-3.357086,-1.831818,1,1,1,1,1,80.000000
2020-01-09 00:57:39.234,1.058012524579895,1.218467671016245,0.8449691287016173,1.092485420272109,0.2650482640728161,0.9723212243163912,0.4161924074587145,0.6407490881318072,0.8686634307477863,0.8366061679122598,0.7255107607905034,0.8174551599779863,0.3492305277889224,0.2728446476366345,0.297649070951499,0.2421135214194926,0.2481015347767098,-0.3387784890894636,0.2031871183257699,0.1922337328583812,836.0805860805862,748.2417582417582,802.2344322344322,921.5018315018315,1030.29304029304,-0.429138,0.079712,0.908936,4.635620,-3.357086,-1.831818,1,1,1,1,1,80.000000
2020-01-09 00:57:39.235,1.058012524579895,1.218467671016245,0.8449691287016173,1.092485420272109,0.2650482640728161,0.9723212243163912,0.4161924074587145,0.6407490881318072,0.8686634307477863,0.8366061679122598,0.7255107607905034,0.8174551599779863,0.3492305277889224,0.2728446476366345,0.297649070951499,0.2421135214194926,0.2481015347767098,-0.3387784890894636,0.2031871183257699,0.1922337328583812,720.4395604395604,743.0036630036631,779.2673992673992,772.014652014652,964.2124542124542,-0.429138,0.079712,0.908936,4.635620,-3.357086,-1.831818,1,1,1,1,1,80.000000
2020-01-09 00:57:39.235,1.058012524579895,1.218467671016245,0.8449691287016173,1.092485420272109,0.2650482640728161,0.9723212243163912,0.4161924074587145,0.6407490881318072,0.8686634307477863,0.8366061679122598,0.7255107607905034,0.8174551599779863,0.3492305277889224,0.2728446476366345,0.297649070951499,0.2421135214194926,0.2481015347767098,-0.3387784890894636,0.2031871183257699,0.1922337328583812,655.9706959706959,735.3479853479854,752.6739926739926,651.5384615384615,600.3663003663004,-0.429138,0.079712,0.908936,4.635620,-3.357086,-1.831818,1,1,1,1,1,80.000000
2020-01-09 00:57:39.235,1.058012524579895,1.218467671016245,0.8449691287016173,1.092485420272109,0.2650482640728161,0.9723212243163912,0.4161924074587145,0.6407490881318072,0.8686634307477863,0.8366061679122598,0.7255107607905034,0.8174551599779863,0.3492305277889224,0.2728446476366345,0.297649070951499,0.2421135214194926,0.2481015347767098,-0.3387784890894636,0.2031871183257699,0.1922337328583812,754.2857142857143,734.5421245421246,769.5970695970697,771.6117216117216,650.3296703296703,-0.429138,0.079712,0.908936,4.635620,-3.357086,-1.831818,1,1,1,1,1,80.000000
2020-01-09 00:57:39.235,1.058012524579895,1.218467671016245,0.8449691287016173,1.092485420272109,0.2650482640728161,0.9723212243163912,0.4161924074587145,0.6407490881318072,0.8686634307477863,0.8366061679122598,0.7255107607905034,0.8174551599779863,0.3492305277889224,0.2728446476366345,0.297649070951499,0.2421135214194926,0.2481015347767098,-0.3387784890894636,0.2031871183257699,0.1922337328583812,837.2893772893773,736.5567765567765,794.5787545787546,909.4139194139194,1036.336996336996,-0.429138,0.079712,0.908936,4.635620,-3.357086,-1.831818,1,1,1,1,1,80.000000
2020-01-09 00:57:39.235,1.058012524579895,1.218467671016245,0.8449691287016173,1.092485420272109,0.2650482640728161,0.9723212243163912,0.4161924074587145,0.6407490881318072,0.8686634307477863,0.8366061679122598,0.7255107607905034,0.8174551599779863,0.3492305277889224,0.2728446476366345,0.297649070951499,0.2421135214194926,0.2481015347767098,-0.3387784890894636,0.2031871183257699,0.1922337328583812,757.9120879120879,736.5567765567765,775.2380952380953,815.5311355311355,1118.534798534798,-0.429138,0.079712,0.908936,4.635620,-3.357086,-1.831818,1,1,1,1,1,80.000000
2020-01-09 00:57:39.236,1.058012524579895,1.218467671016245,0.8449691287016173,1.092485420272109,0.2650482640728161,0.9723212243163912,0.4161924074587145,0.6407490881318072,0.8686634307477863,0.8366061679122598,0.7255107607905034,0.8174551599779863,0.3492305277889224,0.2728446476366345,0.297649070951499,0.2421135214194926,0.2481015347767098,-0.3387784890894636,0.2031871183257699,0.1922337328583812,657.5824175824176,736.1538461538462,746.6300366300367,653.956043956044,711.1721611721612,-0.429138,0.079712,0.908936,4.635620,-3.357086,-1.831818,1,1,1,1,1,80.000000
2020-01-09 00:57:39.236,1.058012524579895,1.218467671016245,0.8449691287016173,1.092485420272109,0.2650482640728161,0.9723212243163912,0.4161924074587145,0.6407490881318072,0.8686634307477863,0.8366061679122598,0.7255107607905034,0.8174551599779863,0.3492305277889224,0.2728446476366345,0.297649070951499,0.2421135214194926,0.2481015347767098,-0.3387784890894636,0.2031871183257699,0.1922337328583812,721.2454212454213,738.1684981684982,761.5384615384615,719.6336996336996,556.0439560439561,-0.429138,0.079712,0.908936,4.635620,-3.357086,-1.831818,1,1,1,1,1,80.000000
2020-01-09 00:57:39.236,1.058012524579895,1.218467671016245,0.8449691287016173,1.092485420272109,0.2650482640728161,0.9723212243163912,0.4161924074587145,0.6407490881318072,0.8686634307477863,0.8366061679122598,0.7255107607905034,0.8174551599779863,0.3492305277889224,0.2728446476366345,0.297649070951499,0.2421135214194926,0.2481015347767098,-0.3387784890894636,0.2031871183257699,0.1922337328583812,837.6923076923077,741.7948717948718,801.4285714285714,891.2820512820513,842.1245421245421,-0.429138,0.079712,0.908936,4.635620,-3.357086,-1.831818,1,1,1,1,1,80.000000
2020-01-09 00:57:39.236,1.058012524579895,1.218467671016245,0.8449691287016173,1.092485420272109,0.2650482640728161,0.9723212243163912,0.4161924074587145,0.6407490881318072,0.8686634307477863,0.8366061679122598,0.7255107607905034,0.8174551599779863,0.3492305277889224,0.2728446476366345,0.297649070951499,0.2421135214194926,0.2481015347767098,-0.3387784890894636,0.2031871183257699,0.1922337328583812,805.4578754578755,738.974358974359,796.1904761904763,870.3296703296703,1074.212454212454,-0.429138,0.079712,0.908936,4.635620,-3.357086,-1.831818,1,1,1,1,1,80.000000
2020-01-09 00:57:39.237,1.058012524579895,1.218467671016245,0.8449691287016173,1.092485420272109,0.2650482640728161,0.9723212243163912,0.4161924074587145,0.6407490881318072,0.8686634307477863,0.8366061679122598,0.7255107607905034,0.8174551599779863,0.3492305277889224,0.2728446476366345,0.297649070951499,0.2421135214194926,0.2481015347767098,-0.3387784890894636,0.2031871183257699,0.1922337328583812,683.3699633699634,735.7509157509157,763.1501831501831,695.8608058608058,919.8901098901099,-0.429138,0.079712,0.908936,4.635620,-3.357086,-1.831818,1,1,1,1,1,80.000000
2020-01-09 00:57:39.237,1.058012524579895,1.218467671016245,0.8449691287016173,1.092485420272109,0.2650482640728161,0.9723212243163912,0.4161924074587145,0.6407490881318072,0.8686634307477863,0.8366061679122598,0.7255107607905034,0.8174551599779863,0.3492305277889224,0.2728446476366345,0.297649070951499,0.2421135214194926,0.2481015347767098,-0.3387784890894636,0.2031871183257699,0.1922337328583812,680.1465201465202,738.974358974359,767.1794871794872,674.9084249084249,536.3003663003664,-0.429138,0.079712,0.908936,4.635620,-3.357086,-1.831818,1,1,1,1,1,80.000000
2020-01-09 00:57:39.237,1.058012524579895,1.218467671016245,0.8449691287016173,1.092485420272109,0.2650482640728161,0.9723212243163912,0.4161924074587145,0.6407490881318072,0.8686634307477863,0.8366061679122598,0.7255107607905034,0.8174551599779863,0.3492305277889224,0.2728446476366345,0.297649070951499,0.2421135214194926,0.2481015347767098,-0.3387784890894636,0.2031871183257699,0.1922337328583812,801.4285714285714,742.1978021978023,792.1611721611722,846.5567765567765,716.4102564102565,-0.428894,0.078308,0.906738,4.740295,-3.327179,-1.577606,1,1,1,1,1,80.000000
2020-01-09 00:57:39.237,1.058012524579895,1.218467671016245,0.8449691287016173,1.092485420272109,0.2650482640728161,0.9723212243163912,0.4161924074587145,0.6407490881318072,0.8686634307477863,0.8366061679122598,0.7255107607905034,0.8174551599779863,0.3492305277889224,0.2728446476366345,0.297649070951499,0.2421135214194926,0.2481015347767098,-0.3387784890894636,0.2031871183257699,0.1922337328583812,824.7985347985348,739.7802197802198,792.967032967033,890.4761904761905,1025.860805860806,-0.428894,0.078308,0.906738,4.740295,-3.327179,-1.577606,1,1,1,1,1,80.000000
2020-01-09 00:57:39.238,1.058012524579895,1.218467671016245,0.8449691287016173,1.092485420272109,0.2650482640728161,0.9723212243163912,0.4161924074587145,0.6407490881318072,0.8686634307477863,0.8366061679122598,0.7255107607905034,0.8174551599779863,0.3492305277889224,0.2728446476366345,0.297649070951499,0.2421135214194926,0.2481015347767098,-0.3387784890894636,0.2031871183257699,0.1922337328583812,708.7545787545788,732.5274725274726,755.8974358974359,722.4542124542124,826.4102564102565,-0.428894,0.078308,0.906738,4.740295,-3.327179,-1.577606,1,1,1,1,1,80.000000
2020-01-09 00:57:39.238,1.058012524579895,1.218467671016245,0.8449691287016173,1.092485420272109,0.2650482640728161,0.9723212243163912,0.4161924074587145,0.6407490881318072,0.8686634307477863,0.8366061679122598,0.7255107607905034,0.8174551599779863,0.3492305277889224,0.2728446476366345,0.297649070951499,0.2421135214194926,0.2481015347767098,-0.3387784890894636,0.2031871183257699,0.1922337328583812,681.7582417582418,728.901098901099,739.7802197802198,649.92673992674,488.3516483516484,-0.428894,0.078308,0.906738,4.740295,-3.327179,-1.577606,1,1,1,1,1,80.000000
2020-01-09 00:57:39.238,1.058012524579895,1.218467671016245,0.8449691287016173,1.092485420272109,0.2650482640728161,0.9723212243163912,0.4161924074587145,0.6407490881318072,0.8686634307477863,0.8366061679122598,0.7255107607905034,0.8174551599779863,0.3492305277889224,0.2728446476366345,0.297649070951499,0.2421135214194926,0.2481015347767098,-0.3387784890894636,0.2031871183257699,0.1922337328583812,792.1611721611722,727.2893772893773,768.3882783882784,805.4578754578755,714.7985347985348,-0.428894,0.078308,0.906738,4.740295,-3.327179,-1.577606,1,1,1,1,1,80.000000
2020-01-09 00:57:39.238,1.058012524579895,1.218467671016245,0.8449691287016173,1.092485420272109,0.2650482640728161,0.9723212243163912,0.4161924074587145,0.6407490881318072,0.8686634307477863,0.8366061679122598,0.7255107607905034,0.8174551599779863,0.3492305277889224,0.2728446476366345,0.297649070951499,0.2421135214194926,0.2481015347767098,-0.3387784890894636,0.2031871183257699,0.1922337328583812,842.5274725274726,730.5128205128206,782.0879120879121,904.981684981685,1211.611721611722,-0.428894,0.078308,0.906738,4.740295,-3.327179,-1.577606,1,1,1,1,1,80.000000
2020-01-09 00:57:39.239,1.058012524579895,1.218467671016245,0.8449691287016173,1.092485420272109,0.2650482640728161,0.9723212243163912,0.4161924074587145,0.6407490881318072,0.8686634307477863,0.8366061679122598,0.7255107607905034,0.8174551599779863,0.3492305277889224,0.2728446476366345,0.297649070951499,0.2421135214194926,0.2481015347767098,-0.3387784890894636,0.2031871183257699,0.1922337328583812,747.032967032967,732.5274725274726,756.7032967032967,769.1941391941392,1054.065934065934,-0.428894,0.078308,0.906738,4.740295,-3.327179,-1.577606,1,1,1,1,1,80.000000
2020-01-09 00:57:39.239,1.058012524579895,1.218467671016245,0.8449691287016173,1.092485420272109,0.2650482640728161,0.9723212243163912,0.4161924074587145,0.6407490881318072,0.8686634307477863,0.8366061679122598,0.7255107607905034,0.8174551599779863,0.3492305277889224,0.2728446476366345,0.297649070951499,0.2421135214194926,0.2481015347767098,-0.3387784890894636,0.2031871183257699,0.1922337328583812,678.1318681318681,728.4981684981685,734.9450549450549,637.032967032967,630.5860805860806,-0.428894,0.078308,0.906738,4.740295,-3.327179,-1.577606,1,1,1,1,1,80.000000
2020-01-09 00:57:39.239,1.058012524579895,1.218467671016245,0.8449691287016173,1.092485420272109,0.2650482640728161,0.9723212243163912,0.4161924074587145,0.6407490881318072,0.8686634307477863,0.8366061679122598,0.7255107607905034,0.8174551599779863,0.3492305277889224,0.2728446476366345,0.297649070951499,0.2421135214194926,0.2481015347767098,-0.3387784890894636,0.2031871183257699,0.1922337328583812,767.1794871794872,729.7069597069598,755.4945054945055,745.0183150183151,643.4798534798535,-0.428894,0.078308,0.906738,4.740295,-3.327179,-1.577606,1,1,1,1,1,80.000000
2020-01-09 00:57:39.239,1.058012524579895,1.218467671016245,0.8449691287016173,1.092485420272109,0.2650482640728161,0.9723212243163912,0.4161924074587145,0.6407490881318072,0.8686634307477863,0.8366061679122598,0.7255107607905034,0.8174551599779863,0.3492305277889224,0.2728446476366345,0.297649070951499,0.2421135214194926,0.2481015347767098,-0.3387784890894636,0.2031871183257699,0.1922337328583812,860.2564102564103,736.5567765567765,778.4615384615385,898.9377289377289,911.0256410256411,-0.428894,0.078308,0.906738,4.740295,-3.327179,-1.577606,1,1,1,1,1,80.000000
2020-01-09 00:57:39.240,1.058012524579895,1.218467671016245,0.8449691287016173,1.092485420272109,0.2650482640728161,0.9723212243163912,0.4161924074587145,0.6407490881318072,0.8686634307477863,0.8366061679122598,0.7255107607905034,0.8174551599779863,0.3492305277889224,0.2728446476366345,0.297649070951499,0.2421135214194926,0.2481015347767098,-0.3387784890894636,0.2031871183257699,0.1922337328583812,786.1172161172161,736.5567765567765,761.5384615384615,822.7838827838829,856.6300366300367,-0.428894,0.078308,0.906738,4.740295,-3.327179,-1.577606,1,1,1,1,1,80.000000
2020-01-09 00:57:39.240,1.058012524579895,1.218467671016245,0.8449691287016173,1.092485420272109,0.2650482640728161,0.9723212243163912,0.4161924074587145,0.6407490881318072,0.8686634307477863,0.8366061679122598,0.7255107607905034,0.8174551599779863,0.3492305277889224,0.2728446476366345,0.297649070951499,0.2421135214194926,0.2481015347767098,-0.3387784890894636,0.2031871183257699,0.1922337328583812,671.6849816849817,732.9304029304029,736.5567765567765,650.3296703296703,475.8608058608059,-0.428894,0.078308,0.906738,4.740295,-3.327179,-1.577606,1,1,1,1,1,80.000000
2020-01-09 00:57:39.240,1.058012524579895,1.218467671016245,0.8449691287016173,1.092485420272109,0.2650482640728161,0.9723212243163912,0.4161924074587145,0.6407490881318072,0.8686634307477863,0.8366061679122598,0.7255107607905034,0.8174551599779863,0.3492305277889224,0.2728446476366345,0.297649070951499,0.2421135214194926,0.2481015347767098,-0.3387784890894636,0.2031871183257699,0.1922337328583812,728.0952380952381,735.7509157509157,742.6007326007326,700.2930402930403,518.5714285714286,-0.434631,0.078308,0.907166,4.673004,-3.147736,-1.592560,1,1,1,1,1,80.000000
2020-01-09 00:57:39.240,1.298816236176397,1.167984929069243,0.8308703068424542,1.092827652691718,0.2384666757586895,0.9256890527191532,0.397186464409529,0.617001399376588,0.8522814001505601,0.8323025584245203,0.7328211203230444,0.8388484462257468,0.3719992046279429,0.2533039903513548,0.3344543561546495,0.2380698484713931,0.228037667052076,-0.3194106702043953,0.1951493026319858,0.1834830381096892,848.974358974359,743.0036630036631,761.1355311355312,888.4615384615385,1260.3663003663,-0.434631,0.078308,0.907166,4.673004,-3.147736,-1.592560,1,1,1,1,1,80.000000
2020-01-09 00:57:39.242,1.298816236176397,1.167984929069243,0.8308703068424542,1.092827652691718,0.2384666757586895,0.9256890527191532,0.397186464409529,0.617001399376588,0.8522814001505601,0.8323025584245203,0.7328211203230444,0.8388484462257468,0.3719992046279429,0.2533039903513548,0.3344543561546495,0.2380698484713931,0.228037667052076,-0.3194106702043953,0.1951493026319858,0.1834830381096892,817.948717948718,748.6446886446887,765.1648351648352,872.7472527472528,1389.304029304029,-0.434631,0.078308,0.907166,4.673004,-3.147736,-1.592560,1,1,1,1,1,80.000000
2020-01-09 00:57:39.242,1.298816236176397,1.167984929069243,0.8308703068424542,1.092827652691718,0.2384666757586895,0.9256890527191532,0.397186464409529,0.617001399376588,0.8522814001505601,0.8323025584245203,0.7328211203230444,0.8388484462257468,0.3719992046279429,0.2533039903513548,0.3344543561546495,0.2380698484713931,0.228037667052076,-0.3194106702043953,0.1951493026319858,0.1834830381096892,692.2344322344322,745.8241758241759,742.1978021978023,685.7875457875458,792.5641025641025,-0.434631,0.078308,0.907166,4.673004,-3.147736,-1.592560,1,1,1,1,1,80.000000
2020-01-09 00:57:39.242,1.298816236176397,1.167984929069243,0.8308703068424542,1.092827652691718,0.2384666757586895,0.9256890527191532,0.397186464409529,0.617001399376588,0.8522814001505601,0.8323025584245203,0.7328211203230444,0.8388484462257468,0.3719992046279429,0.2533039903513548,0.3344543561546495,0.2380698484713931,0.228037667052076,-0.3194106702043953,0.1951493026319858,0.1834830381096892,697.4725274725275,745.0183150183151,736.959706959707,660.8058608058608,555.2380952380953,-0.434631,0.078308,0.907166,4.673004,-3.147736,-1.592560,1,1,1,1,1,80.000000
2020-01-09 00:57:39.243,1.298816236176397,1.167984929069243,0.8308703068424542,1.092827652691718,0.2384666757586895,0.9256890527191532,0.397186464409529,0.617001399376588,0.8522814001505601,0.8323025584245203,0.7328211203230444,0.8388484462257468,0.3719992046279429,0.2533039903513548,0.3344543561546495,0.2380698484713931,0.228037667052076,-0.3194106702043953,0.1951493026319858,0.1834830381096892,828.8278388278388,752.6739926739926,767.1794871794872,840.1098901098901,929.96336996337,-0.434631,0.078308,0.907166,4.673004,-3.147736,-1.592560,1,1,1,1,1,80.000000
2020-01-09 00:57:39.243,1.298816236176397,1.167984929069243,0.8308703068424542,1.092827652691718,0.2384666757586895,0.9256890527191532,0.397186464409529,0.617001399376588,0.8522814001505601,0.8323025584245203,0.7328211203230444,0.8388484462257468,0.3719992046279429,0.2533039903513548,0.3344543561546495,0.2380698484713931,0.228037667052076,-0.3194106702043953,0.1951493026319858,0.1834830381096892,846.5567765567765,755.8974358974359,780.0732600732601,906.1904761904763,1294.615384615385,-0.434631,0.078308,0.907166,4.673004,-3.147736,-1.592560,1,1,1,1,1,80.000000
2020-01-09 00:57:39.243,1.298816236176397,1.167984929069243,0.8308703068424542,1.092827652691718,0.2384666757586895,0.9256890527191532,0.397186464409529,0.617001399376588,0.8522814001505601,0.8323025584245203,0.7328211203230444,0.8388484462257468,0.3719992046279429,0.2533039903513548,0.3344543561546495,0.2380698484713931,0.228037667052076,-0.3194106702043953,0.1951493026319858,0.1834830381096892,721.2454212454213,750.2564102564103,759.1208791208792,738.1684981684982,906.996336996337,-0.434631,0.078308,0.907166,4.673004,-3.147736,-1.592560,1,1,1,1,1,80.000000
2020-01-09 00:57:39.243,1.298816236176397,1.167984929069243,0.8308703068424542,1.092827652691718,0.2384666757586895,0.9256890527191532,0.397186464409529,0.617001399376588,0.8522814001505601,0.8323025584245203,0.7328211203230444,0.8388484462257468,0.3719992046279429,0.2533039903513548,0.3344543561546495,0.2380698484713931,0.228037667052076,-0.3194106702043953,0.1951493026319858,0.1834830381096892,681.3553113553114,739.7802197802198,736.5567765567765,645.8974358974359,655.1648351648352,-0.434631,0.078308,0.907166,4.673004,-3.147736,-1.592560,1,1,1,1,1,80.000000
2020-01-09 00:57:39.244,1.298816236176397,1.167984929069243,0.8308703068424542,1.092827652691718,0.2384666757586895,0.9256890527191532,0.397186464409529,0.617001399376588,0.8522814001505601,0.8323025584245203,0.7328211203230444,0.8388484462257468,0.3719992046279429,0.2533039903513548,0.3344543561546495,0.2380698484713931,0.228037667052076,-0.3194106702043953,0.1951493026319858,0.1834830381096892,796.5934065934066,740.1831501831502,755.8974358974359,796.1904761904763,1066.556776556777,-0.434631,0.078308,0.907166,4.673004,-3.147736,-1.592560,1,1,1,1,1,80.000000
2020-01-09 00:57:39.244,1.298816236176397,1.167984929069243,0.8308703068424542,1.092827652691718,0.2384666757586895,0.9256890527191532,0.397186464409529,0.617001399376588,0.8522814001505601,0.8323025584245203,0.7328211203230444,0.8388484462257468,0.3719992046279429,0.2533039903513548,0.3344543561546495,0.2380698484713931,0.228037667052076,-0.3194106702043953,0.1951493026319858,0.1834830381096892,856.6300366300367,749.047619047619,782.893772893773,912.6373626373627,1202.747252747253,-0.434631,0.078308,0.907166,4.673004,-3.147736,-1.592560,1,1,1,1,1,80.000000
2020-01-09 00:57:39.244,1.298816236176397,1.167984929069243,0.8308703068424542,1.092827652691718,0.2384666757586895,0.9256890527191532,0.397186464409529,0.617001399376588,0.8522814001505601,0.8323025584245203,0.7328211203230444,0.8388484462257468,0.3719992046279429,0.2533039903513548,0.3344543561546495,0.2380698484713931,0.228037667052076,-0.3194106702043953,0.1951493026319858,0.1834830381096892,757.1062271062272,751.8681318681319,760.3296703296703,787.3260073260074,967.8388278388279,-0.434631,0.078308,0.907166,4.673004,-3.147736,-1.592560,1,1,1,1,1,80.000000
2020-01-09 00:57:39.244,1.298816236176397,1.167984929069243,0.8308703068424542,1.092827652691718,0.2384666757586895,0.9256890527191532,0.397186464409529,0.617001399376588,0.8522814001505601,0.8323025584245203,0.7328211203230444,0.8388484462257468,0.3719992046279429,0.2533039903513548,0.3344543561546495,0.2380698484713931,0.228037667052076,-0.3194106702043953,0.1951493026319858,0.1834830381096892,677.3260073260074,754.6886446886447,728.0952380952381,646.7032967032967,603.992673992674,-0.431396,0.079346,0.909729,4.620667,-3.372040,-1.495361,1,1,1,1,1,80.000000
2020-01-09 00:57:39.245,1.298816236176397,1.167984929069243,0.8308703068424542,1.092827652691718,0.2384666757586895,0.9256890527191532,0.397186464409529,0.617001399376588,0.8522814001505601,0.8323025584245203,0.7328211203230444,0.8388484462257468,0.3719992046279429,0.2533039903513548,0.3344543561546495,0.2380698484713931,0.228037667052076,-0.3194106702043953,0.1951493026319858,0.1834830381096892,764.7619047619048,757.1062271062272,744.2124542124542,752.2710622710623,593.1135531135532,-0.431396,0.079346,0.909729,4.620667,-3.372040,-1.495361,1,1,1,1,1,80.000000
2020-01-09 00:57:39.245,1.298816236176397,1.167984929069243,0.8308703068424542,1.092827652691718,0.2384666757586895,0.9256890527191532,0.397186464409529,0.617001399376588,0.8522814001505601,0.8323025584245203,0.7328211203230444,0.8388484462257468,0.3719992046279429,0.2533039903513548,0.3344543561546495,0.2380698484713931,0.228037667052076,-0.3194106702043953,0.1951493026319858,0.1834830381096892,865.4945054945056,761.1355311355312,776.4468864468864,919.8901098901099,970.6593406593407,-0.431396,0.079346,0.909729,4.620667,-3.372040,-1.495361,1,1,1,1,1,80.000000
2020-01-09 00:57:39.245,1.298816236176397,1.167984929069243,0.8308703068424542,1.092827652691718,0.2384666757586895,0.9256890527191532,0.397186464409529,0.617001399376588,0.8522814001505601,0.8323025584245203,0.7328211203230444,0.8388484462257468,0.3719992046279429,0.2533039903513548,0.3344543561546495,0.2380698484713931,0.228037667052076,-0.3194106702043953,0.1951493026319858,0.1834830381096892,810.2930402930403,755.4945054945055,762.7472527472528,858.6446886446887,1131.428571428572,-0.431396,0.079346,0.909729,4.620667,-3.372040,-1.495361,1,1,1,1,1,80.000000
2020-01-09 00:57:39.245,1.298816236176397,1.167984929069243,0.8308703068424542,1.092827652691718,0.2384666757586895,0.9256890527191532,0.397186464409529,0.617001399376588,0.8522814001505601,0.8323025584245203,0.7328211203230444,0.8388484462257468,0.3719992046279429,0.2533039903513548,0.3344543561546495,0.2380698484713931,0.228037667052076,-0.3194106702043953,0.1951493026319858,0.1834830381096892,695.4578754578755,743.4065934065934,727.2893772893773,686.1904761904763,743.0036630036631,-0.431396,0.079346,0.909729,4.620667,-3.372040,-1.495361,1,1,1,1,1,80.000000
2020-01-09 00:57:39.246,1.298816236176397,1.167984929069243,0.8308703068424542,1.092827652691718,0.2384666757586895,0.9256890527191532,0.397186464409529,0.617001399376588,0.8522814001505601,0.8323025584245203,0.7328211203230444,0.8388484462257468,0.3719992046279429,0.2533039903513548,0.3344543561546495,0.2380698484713931,0.228037667052076,-0.3194106702043953,0.1951493026319858,0.1834830381096892,716.8131868131868,739.3772893772893,728.4981684981685,710.7692307692308,526.6300366300367,-0.431396,0.079346,0.909729,4.620667,-3.372040,-1.495361,1,1,1,1,1,80.000000
2020-01-09 00:57:39.246,1.298816236176397,1.167984929069243,0.8308703068424542,1.092827652691718,0.2384666757586895,0.9256890527191532,0.397186464409529,0.617001399376588,0.8522814001505601,0.8323025584245203,0.7328211203230444,0.8388484462257468,0.3719992046279429,0.2533039903513548,0.3344543561546495,0.2380698484713931,0.228037667052076,-0.3194106702043953,0.1951493026319858,0.1834830381096892,844.9450549450549,747.032967032967,765.5677655677656,889.2673992673992,880,-0.431396,0.079346,0.909729,4.620667,-3.372040,-1.495361,1,1,1,1,1,80.000000
2020-01-09 00:57:39.246,1.298816236176397,1.167984929069243,0.8308703068424542,1.092827652691718,0.2384666757586895,0.9256890527191532,0.397186464409529,0.617001399376588,0.8522814001505601,0.8323025584245203,0.7328211203230444,0.8388484462257468,0.3719992046279429,0.2533039903513548,0.3344543561546495,0.2380698484713931,0.228037667052076,-0.3194106702043953,0.1951493026319858,0.1834830381096892,846.959706959707,753.0769230769231,782.893772893773,899.3406593406594,1090.732600732601,-0.431396,0.079346,0.909729,4.620667,-3.372040,-1.495361,1,1,1,1,1,80.000000
2020-01-09 00:57:39.246,1.298816236176397,1.167984929069243,0.8308703068424542,1.092827652691718,0.2384666757586895,0.9256890527191532,0.397186464409529,0.617001399376588,0.8522814001505601,0.8323025584245203,0.7328211203230444,0.8388484462257468,0.3719992046279429,0.2533039903513548,0.3344543561546495,0.2380698484713931,0.228037667052076,-0.3194106702043953,0.1951493026319858,0.1834830381096892,716.007326007326,745.0183150183151,752.6739926739926,715.6043956043957,751.0622710622711,-0.431396,0.079346,0.909729,4.620667,-3.372040,-1.495361,1,1,1,1,1,80.000000
2020-01-09 00:57:39.247,1.298816236176397,1.167984929069243,0.8308703068424542,1.092827652691718,0.2384666757586895,0.9256890527191532,0.397186464409529,0.617001399376588,0.8522814001505601,0.8323025584245203,0.7328211203230444,0.8388484462257468,0.3719992046279429,0.2533039903513548,0.3344543561546495,0.2380698484713931,0.228037667052076,-0.3194106702043953,0.1951493026319858,0.1834830381096892,702.7106227106227,736.5567765567765,736.959706959707,664.8351648351648,385.6043956043956,-0.431396,0.079346,0.909729,4.620667,-3.372040,-1.495361,1,1,1,1,1,80.000000
2020-01-09 00:57:39.247,1.298816236176397,1.167984929069243,0.8308703068424542,1.092827652691718,0.2384666757586895,0.9256890527191532,0.397186464409529,0.617001399376588,0.8522814001505601,0.8323025584245203,0.7328211203230444,0.8388484462257468,0.3719992046279429,0.2533039903513548,0.3344543561546495,0.2380698484713931,0.228037667052076,-0.3194106702043953,0.1951493026319858,0.1834830381096892,843.3333333333334,748.2417582417582,768.7912087912088,866.3003663003664,749.8534798534798,-0.431396,0.079346,0.909729,4.620667,-3.372040,-1.495361,1,1,1,1,1,80.000000
2020-01-09 00:57:39.247,1.298816236176397,1.167984929069243,0.8308703068424542,1.092827652691718,0.2384666757586895,0.9256890527191532,0.397186464409529,0.617001399376588,0.8522814001505601,0.8323025584245203,0.7328211203230444,0.8388484462257468,0.3719992046279429,0.2533039903513548,0.3344543561546495,0.2380698484713931,0.228037667052076,-0.3194106702043953,0.1951493026319858,0.1834830381096892,823.992673992674,752.6739926739926,768.3882783882784,886.4468864468864,1222.087912087912,-0.431396,0.079346,0.909729,4.620667,-3.372040,-1.495361,1,1,1,1,1,80.000000
2020-01-09 00:57:39.247,1.298816236176397,1.167984929069243,0.8308703068424542,1.092827652691718,0.2384666757586895,0.9256890527191532,0.397186464409529,0.617001399376588,0.8522814001505601,0.8323025584245203,0.7328211203230444,0.8388484462257468,0.3719992046279429,0.2533039903513548,0.3344543561546495,0.2380698484713931,0.228037667052076,-0.3194106702043953,0.1951493026319858,0.1834830381096892,692.6373626373627,746.2271062271062,743.8095238095239,690.2197802197802,1002.087912087912,-0.429871,0.077148,0.908875,4.493561,-3.401947,-1.644897,1,1,1,1,1,80.000000
2020-01-09 00:57:39.248,1.298816236176397,1.167984929069243,0.8308703068424542,1.092827652691718,0.2384666757586895,0.9256890527191532,0.397186464409529,0.617001399376588,0.8522814001505601,0.8323025584245203,0.7328211203230444,0.8388484462257468,0.3719992046279429,0.2533039903513548,0.3344543561546495,0.2380698484713931,0.228037667052076,-0.3194106702043953,0.1951493026319858,0.1834830381096892,734.9450549450549,752.2710622710623,760.7326007326008,703.919413919414,572.1611721611722,-0.429871,0.077148,0.908875,4.493561,-3.401947,-1.644897,1,1,1,1,1,80.000000
2020-01-09 00:57:39.248,1.298816236176397,1.167984929069243,0.8308703068424542,1.092827652691718,0.2384666757586895,0.9256890527191532,0.397186464409529,0.617001399376588,0.8522814001505601,0.8323025584245203,0.7328211203230444,0.8388484462257468,0.3719992046279429,0.2533039903513548,0.3344543561546495,0.2380698484713931,0.228037667052076,-0.3194106702043953,0.1951493026319858,0.1834830381096892,854.6153846153846,755.0915750915751,789.7435897435897,882.4175824175825,806.2637362637363,-0.429871,0.077148,0.908875,4.493561,-3.401947,-1.644897,1,1,1,1,1,80.000000
2020-01-09 00:57:39.248,1.473954596527116,1.120766708767946,0.8389751443669945,1.082942332418599,0.2068084036820429,0.8548885354700886,0.381492653835157,0.5785114168853026,0.8256480650718229,0.7988258734372624,0.7477383776354637,0.8350783110467899,0.3918802372717712,0.2457426514133388,0.3675270076419788,0.2386142122326314,0.2012025811567865,-0.3051057196135791,0.1749247750214694,0.1713929177789854,845.3479853479854,756.3003663003664,791.7582417582418,898.1318681318681,1104.432234432235,-0.429871,0.077148,0.908875,4.493561,-3.401947,-1.644897,1,1,1,1,1,80.000000
2020-01-09 00:57:39.249,1.473954596527116,1.120766708767946,0.8389751443669945,1.082942332418599,0.2068084036820429,0.8548885354700886,0.381492653835157,0.5785114168853026,0.8256480650718229,0.7988258734372624,0.7477383776354637,0.8350783110467899,0.3918802372717712,0.2457426514133388,0.3675270076419788,0.2386142122326314,0.2012025811567865,-0.3051057196135791,0.1749247750214694,0.1713929177789854,726.0805860805862,753.0769230769231,763.5531135531136,715.2014652014652,785.3113553113553,-0.429871,0.077148,0.908875,4.493561,-3.401947,-1.644897,1,1,1,1,1,80.000000
2020-01-09 00:57:39.249,1.473954596527116,1.120766708767946,0.8389751443669945,1.082942332418599,0.2068084036820429,0.8548885354700886,0.381492653835157,0.5785114168853026,0.8256480650718229,0.7988258734372624,0.7477383776354637,0.8350783110467899,0.3918802372717712,0.2457426514133388,0.3675270076419788,0.2386142122326314,0.2012025811567865,-0.3051057196135791,0.1749247750214694,0.1713929177789854,715.2014652014652,750.2564102564103,751.0622710622711,660.4029304029305,412.6007326007326,-0.429871,0.077148,0.908875,4.493561,-3.401947,-1.644897,1,1,1,1,1,80.000000
2020-01-09 00:57:39.249,1.473954596527116,1.120766708767946,0.8389751443669945,1.082942332418599,0.2068084036820429,0.8548885354700886,0.381492653835157,0.5785114168853026,0.8256480650718229,0.7988258734372624,0.7477383776354637,0.8350783110467899,0.3918802372717712,0.2457426514133388,0.3675270076419788,0.2386142122326314,0.2012025811567865,-0.3051057196135791,0.1749247750214694,0.1713929177789854,830.8424908424909,755.4945054945055,777.6556776556777,823.5897435897436,755.4945054945055,-0.429871,0.077148,0.908875,4.493561,-3.401947,-1.644897,1,1,1,1,1,80.000000
2020-01-09 00:57:39.250,1.473954596527116,1.120766708767946,0.8389751443669945,1.082942332418599,0.2068084036820429,0.8548885354700886,0.381492653835157,0.5785114168853026,0.8256480650718229,0.7988258734372624,0.7477383776354637,0.8350783110467899,0.3918802372717712,0.2457426514133388,0.3675270076419788,0.2386142122326314,0.2012025811567865,-0.3051057196135791,0.1749247750214694,0.1713929177789854,864.2857142857143,757.9120879120879,789.3406593406594,910.2197802197802,1338.534798534798,-0.429871,0.077148,0.908875,4.493561,-3.401947,-1.644897,1,1,1,1,1,80.000000
2020-01-09 00:57:39.250,1.473954596527116,1.120766708767946,0.8389751443669945,1.082942332418599,0.2068084036820429,0.8548885354700886,0.381492653835157,0.5785114168853026,0.8256480650718229,0.7988258734372624,0.7477383776354637,0.8350783110467899,0.3918802372717712,0.2457426514133388,0.3675270076419788,0.2386142122326314,0.2012025811567865,-0.3051057196135791,0.1749247750214694,0.1713929177789854,754.6886446886447,756.7032967032967,762.3443223443223,763.956043956044,1000.47619047619,-0.429871,0.077148,0.908875,4.493561,-3.401947,-1.644897,1,1,1,1,1,80.000000
2020-01-09 00:57:39.250,1.473954596527116,1.120766708767946,0.8389751443669945,1.082942332418599,0.2068084036820429,0.8548885354700886,0.381492653835157,0.5785114168853026,0.8256480650718229,0.7988258734372624,0.7477383776354637,0.8350783110467899,0.3918802372717712,0.2457426514133388,0.3675270076419788,0.2386142122326314,0.2012025811567865,-0.3051057196135791,0.1749247750214694,0.1713929177789854,697.4725274725275,750.6593406593407,738.5714285714286,650.7326007326008,367.0695970695971,-0.429871,0.077148,0.908875,4.493561,-3.401947,-1.644897,1,1,1,1,1,80.000000
2020-01-09 00:57:39.250,1.473954596527116,1.120766708767946,0.8389751443669945,1.082942332418599,0.2068084036820429,0.8548885354700886,0.381492653835157,0.5785114168853026,0.8256480650718229,0.7988258734372624,0.7477383776354637,0.8350783110467899,0.3918802372717712,0.2457426514133388,0.3675270076419788,0.2386142122326314,0.2012025811567865,-0.3051057196135791,0.1749247750214694,0.1713929177789854,796.5934065934066,750.6593406593407,757.1062271062272,778.4615384615385,618.0952380952381,-0.429871,0.077148,0.908875,4.493561,-3.401947,-1.644897,1,1,1,1,1,80.000000
2020-01-09 00:57:39.250,1.473954596527116,1.120766708767946,0.8389751443669945,1.082942332418599,0.2068084036820429,0.8548885354700886,0.381492653835157,0.5785114168853026,0.8256480650718229,0.7988258734372624,0.7477383776354637,0.8350783110467899,0.3918802372717712,0.2457426514133388,0.3675270076419788,0.2386142122326314,0.2012025811567865,-0.3051057196135791,0.1749247750214694,0.1713929177789854,880,756.3003663003664,782.0879120879121,917.8754578754579,982.7472527472528,-0.429871,0.077148,0.908875,4.493561,-3.401947,-1.644897,1,1,1,1,1,80.000000
2020-01-09 00:57:39.250,1.473954596527116,1.120766708767946,0.8389751443669945,1.082942332418599,0.2068084036820429,0.8548885354700886,0.381492653835157,0.5785114168853026,0.8256480650718229,0.7988258734372624,0.7477383776354637,0.8350783110467899,0.3918802372717712,0.2457426514133388,0.3675270076419788,0.2386142122326314,0.2012025811567865,-0.3051057196135791,0.1749247750214694,0.1713929177789854,795.3846153846154,750.2564102564103,761.5384615384615,817.948717948718,863.8827838827839,-0.429565,0.080017,0.905396,4.687958,-3.155212,-1.607513,1,1,1,1,1,80.000000
2020-01-09 00:57:39.251,1.473954596527116,1.120766708767946,0.8389751443669945,1.082942332418599,0.2068084036820429,0.8548885354700886,0.381492653835157,0.5785114168853026,0.8256480650718229,0.7988258734372624,0.7477383776354637,0.8350783110467899,0.3918802372717712,0.2457426514133388,0.3675270076419788,0.2386142122326314,0.2012025811567865,-0.3051057196135791,0.1749247750214694,0.1713929177789854,688.6080586080586,742.6007326007326,726.4835164835165,660,551.2087912087912,-0.429565,0.080017,0.905396,4.687958,-3.155212,-1.607513,1,1,1,1,1,80.000000
2020-01-09 00:57:39.251,1.473954596527116,1.120766708767946,0.8389751443669945,1.082942332418599,0.2068084036820429,0.8548885354700886,0.381492653835157,0.5785114168853026,0.8256480650718229,0.7988258734372624,0.7477383776354637,0.8350783110467899,0.3918802372717712,0.2457426514133388,0.3675270076419788,0.2386142122326314,0.2012025811567865,-0.3051057196135791,0.1749247750214694,0.1713929177789854,752.2710622710623,736.959706959707,728.4981684981685,729.3040293040293,637.4358974358975,-0.429565,0.080017,0.905396,4.687958,-3.155212,-1.607513,1,1,1,1,1,80.000000
2020-01-09 00:57:39.251,1.473954596527116,1.120766708767946,0.8389751443669945,1.082942332418599,0.2068084036820429,0.8548885354700886,0.381492653835157,0.5785114168853026,0.8256480650718229,0.7988258734372624,0.7477383776354637,0.8350783110467899,0.3918802372717712,0.2457426514133388,0.3675270076419788,0.2386142122326314,0.2012025811567865,-0.3051057196135791,0.1749247750214694,0.1713929177789854,864.2857142857143,740.989010989011,764.3589743589744,902.1611721611722,1063.333333333333,-0.429565,0.080017,0.905396,4.687958,-3.155212,-1.607513,1,1,1,1,1,80.000000
2020-01-09 00:57:39.251,1.473954596527116,1.120766708767946,0.8389751443669945,1.082942332418599,0.2068084036820429,0.8548885354700886,0.381492653835157,0.5785114168853026,0.8256480650718229,0.7988258734372624,0.7477383776354637,0.8350783110467899,0.3918802372717712,0.2457426514133388,0.3675270076419788,0.2386142122326314,0.2012025811567865,-0.3051057196135791,0.1749247750214694,0.1713929177789854,817.948717948718,747.8388278388279,768.3882783882784,859.047619047619,1048.021978021978,-0.429565,0.080017,0.905396,4.687958,-3.155212,-1.607513,1,1,1,1,1,80.000000
2020-01-09 00:57:39.251,1.473954596527116,1.120766708767946,0.8389751443669945,1.082942332418599,0.2068084036820429,0.8548885354700886,0.381492653835157,0.5785114168853026,0.8256480650718229,0.7988258734372624,0.7477383776354637,0.8350783110467899,0.3918802372717712,0.2457426514133388,0.3675270076419788,0.2386142122326314,0.2012025811567865,-0.3051057196135791,0.1749247750214694,0.1713929177789854,709.5604395604396,739.7802197802198,732.9304029304029,693.040293040293,669.6703296703297,-0.429565,0.080017,0.905396,4.687958,-3.155212,-1.607513,1,1,1,1,1,80.000000
2020-01-09 00:57:39.251,1.473954596527116,1.120766708767946,0.8389751443669945,1.082942332418599,0.2068084036820429,0.8548885354700886,0.381492653835157,0.5785114168853026,0.8256480650718229,0.7988258734372624,0.7477383776354637,0.8350783110467899,0.3918802372717712,0.2457426514133388,0.3675270076419788,0.2386142122326314,0.2012025811567865,-0.3051057196135791,0.1749247750214694,0.1713929177789854,740.1831501831502,736.959706959707,724.0659340659341,708.3516483516484,543.956043956044,-0.429565,0.080017,0.905396,4.687958,-3.155212,-1.607513,1,1,1,1,1,80.000000
2020-01-09 00:57:39.251,1.473954596527116,1.120766708767946,0.8389751443669945,1.082942332418599,0.2068084036820429,0.8548885354700886,0.381492653835157,0.5785114168853026,0.8256480650718229,0.7988258734372624,0.7477383776354637,0.8350783110467899,0.3918802372717712,0.2457426514133388,0.3675270076419788,0.2386142122326314,0.2012025811567865,-0.3051057196135791,0.1749247750214694,0.1713929177789854,841.7216117216118,738.5714285714286,749.4505494505495,863.0769230769231,797.3992673992674,-0.429565,0.080017,0.905396,4.687958,-3.155212,-1.607513,1,1,1,1,1,80.000000
2020-01-09 00:57:39.252,1.473954596527116,1.120766708767946,0.8389751443669945,1.082942332418599,0.2068084036820429,0.8548885354700886,0.381492653835157,0.5785114168853026,0.8256480650718229,0.7988258734372624,0.7477383776354637,0.8350783110467899,0.3918802372717712,0.2457426514133388,0.3675270076419788,0.2386142122326314,0.2012025811567865,-0.3051057196135791,0.1749247750214694,0.1713929177789854,846.5567765567765,741.7948717948718,760.3296703296703,898.1318681318681,1041.172161172161,-0.429565,0.080017,0.905396,4.687958,-3.155212,-1.607513,1,1,1,1,1,80.000000
2020-01-09 00:57:39.252,1.473954596527116,1.120766708767946,0.8389751443669945,1.082942332418599,0.2068084036820429,0.8548885354700886,0.381492653835157,0.5785114168853026,0.8256480650718229,0.7988258734372624,0.7477383776354637,0.8350783110467899,0.3918802372717712,0.2457426514133388,0.3675270076419788,0.2386142122326314,0.2012025811567865,-0.3051057196135791,0.1749247750214694,0.1713929177789854,728.901098901099,740.5860805860806,730.9157509157509,726.8864468864469,813.1135531135532,-0.429565,0.080017,0.905396,4.687958,-3.155212,-1.607513,1,1,1,1,1,80.000000
2020-01-09 00:57:39.252,1.473954596527116,1.120766708767946,0.8389751443669945,1.082942332418599,0.2068084036820429,0.8548885354700886,0.381492653835157,0.5785114168853026,0.8256480650718229,0.7988258734372624,0.7477383776354637,0.8350783110467899,0.3918802372717712,0.2457426514133388,0.3675270076419788,0.2386142122326314,0.2012025811567865,-0.3051057196135791,0.1749247750214694,0.1713929177789854,703.1135531135532,734.5421245421246,713.5897435897436,667.6556776556777,639.4505494505495,-0.429565,0.080017,0.905396,4.687958,-3.155212,-1.607513,1,1,1,1,1,80.000000
2020-01-09 00:57:39.252,1.473954596527116,1.120766708767946,0.8389751443669945,1.082942332418599,0.2068084036820429,0.8548885354700886,0.381492653835157,0.5785114168853026,0.8256480650718229,0.7988258734372624,0.7477383776354637,0.8350783110467899,0.3918802372717712,0.2457426514133388,0.3675270076419788,0.2386142122326314,0.2012025811567865,-0.3051057196135791,0.1749247750214694,0.1713929177789854,817.1428571428571,739.3772893772893,746.6300366300367,822.7838827838829,885.6410256410256,-0.429565,0.080017,0.905396,4.687958,-3.155212,-1.607513,1,1,1,1,1,80.000000
2020-01-09 00:57:39.252,1.473954596527116,1.120766708767946,0.8389751443669945,1.082942332418599,0.2068084036820429,0.8548885354700886,0.381492653835157,0.5785114168853026,0.8256480650718229,0.7988258734372624,0.7477383776354637,0.8350783110467899,0.3918802372717712,0.2457426514133388,0.3675270076419788,0.2386142122326314,0.2012025811567865,-0.3051057196135791,0.1749247750214694,0.1713929177789854,864.2857142857143,744.6153846153846,776.4468864468864,913.040293040293,1002.087912087912,-0.429565,0.080017,0.905396,4.687958,-3.155212,-1.607513,1,1,1,1,1,80.000000
2020-01-09 00:57:39.252,1.473954596527116,1.120766708767946,0.8389751443669945,1.082942332418599,0.2068084036820429,0.8548885354700886,0.381492653835157,0.5785114168853026,0.8256480650718229,0.7988258734372624,0.7477383776354637,0.8350783110467899,0.3918802372717712,0.2457426514133388,0.3675270076419788,0.2386142122326314,0.2012025811567865,-0.3051057196135791,0.1749247750214694,0.1713929177789854,761.1355311355312,740.5860805860806,751.8681318681319,778.4615384615385,860.2564102564103,-0.429565,0.080017,0.905396,4.687958,-3.155212,-1.607513,1,1,1,1,1,80.000000
2020-01-09 00:57:39.253,1.473954596527116,1.120766708767946,0.8389751443669945,1.082942332418599,0.2068084036820429,0.8548885354700886,0.381492653835157,0.5785114168853026,0.8256480650718229,0.7988258734372624,0.7477383776354637,0.8350783110467899,0.3918802372717712,0.2457426514133388,0.3675270076419788,0.2386142122326314,0.2012025811567865,-0.3051057196135791,0.1749247750214694,0.1713929177789854,685.7875457875458,736.959706959707,725.2747252747253,651.1355311355312,458.9377289377289,-0.429565,0.080017,0.905396,4.687958,-3.155212,-1.607513,1,1,1,1,1,80.000000
2020-01-09 00:57:39.253,1.473954596527116,1.120766708767946,0.8389751443669945,1.082942332418599,0.2068084036820429,0.8548885354700886,0.381492653835157,0.5785114168853026,0.8256480650718229,0.7988258734372624,0.7477383776354637,0.8350783110467899,0.3918802372717712,0.2457426514133388,0.3675270076419788,0.2386142122326314,0.2012025811567865,-0.3051057196135791,0.1749247750214694,0.1713929177789854,784.9084249084249,739.7802197802198,743.8095238095239,770.4029304029305,497.6190476190476,-0.429565,0.080017,0.905396,4.687958,-3.155212,-1.607513,1,1,1,1,1,80.000000
2020-01-09 00:57:39.253,1.473954596527116,1.120766708767946,0.8389751443669945,1.082942332418599,0.2068084036820429,0.8548885354700886,0.381492653835157,0.5785114168853026,0.8256480650718229,0.7988258734372624,0.7477383776354637,0.8350783110467899,0.3918802372717712,0.2457426514133388,0.3675270076419788,0.2386142122326314,0.2012025811567865,-0.3051057196135791,0.1749247750214694,0.1713929177789854,870.3296703296703,739.3772893772893,765.9706959706959,908.2051282051282,921.9047619047619,-0.429565,0.080017,0.905396,4.687958,-3.155212,-1.607513,1,1,1,1,1,80.000000
2020-01-09 00:57:39.253,1.598475804806962,1.084915495840233,0.852678035493948,1.05285847695433,0.1813457378226015,0.7862002740461506,0.3949918685100999,0.5324547827612125,0.8116322500548717,0.783644319615633,0.7625941597668904,0.7954128221360318,0.411111126596861,0.2495573071239003,0.3926613410095634,0.2360039432392479,0.1677904873734089,-0.2990942193179157,0.1480194886267522,0.1555684620374901,788.9377289377289,735.7509157509157,748.2417582417582,815.5311355311355,1006.923076923077,-0.429565,0.080017,0.905396,4.687958,-3.155212,-1.607513,1,1,1,1,1,80.000000
2020-01-09 00:57:39.254,1.598475804806962,1.084915495840233,0.852678035493948,1.05285847695433,0.1813457378226015,0.7862002740461506,0.3949918685100999,0.5324547827612125,0.8116322500548717,0.783644319615633,0.7625941597668904,0.7954128221360318,0.411111126596861,0.2495573071239003,0.3926613410095634,0.2360039432392479,0.1677904873734089,-0.2990942193179157,0.1480194886267522,0.1555684620374901,689.4139194139194,731.7216117216118,707.5457875457876,663.2234432234433,884.0293040293041,-0.429565,0.080017,0.905396,4.687958,-3.155212,-1.607513,1,1,1,1,1,80.000000
2020-01-09 00:57:39.254,1.598475804806962,1.084915495840233,0.852678035493948,1.05285847695433,0.1813457378226015,0.7862002740461506,0.3949918685100999,0.5324547827612125,0.8116322500548717,0.783644319615633,0.7625941597668904,0.7954128221360318,0.411111126596861,0.2495573071239003,0.3926613410095634,0.2360039432392479,0.1677904873734089,-0.2990942193179157,0.1480194886267522,0.1555684620374901,742.1978021978023,733.7362637362637,709.9633699633699,712.7838827838829,748.2417582417582,-0.429565,0.080017,0.905396,4.687958,-3.155212,-1.607513,1,1,1,1,1,80.000000
2020-01-09 00:57:39.254,1.598475804806962,1.084915495840233,0.852678035493948,1.05285847695433,0.1813457378226015,0.7862002740461506,0.3949918685100999,0.5324547827612125,0.8116322500548717,0.783644319615633,0.7625941597668904,0.7954128221360318,0.411111126596861,0.2495573071239003,0.3926613410095634,0.2360039432392479,0.1677904873734089,-0.2990942193179157,0.1480194886267522,0.1555684620374901,857.8388278388279,742.6007326007326,748.2417582417582,882.8205128205128,904.981684981685,-0.429565,0.080017,0.905396,4.687958,-3.155212,-1.607513,1,1,1,1,1,80.000000
2020-01-09 00:57:39.255,1.598475804806962,1.084915495840233,0.852678035493948,1.05285847695433,0.1813457378226015,0.7862002740461506,0.3949918685100999,0.5324547827612125,0.8116322500548717,0.783644319615633,0.7625941597668904,0.7954128221360318,0.411111126596861,0.2495573071239003,0.3926613410095634,0.2360039432392479,0.1677904873734089,-0.2990942193179157,0.1480194886267522,0.1555684620374901,819.1575091575091,739.7802197802198,744.6153846153846,861.0622710622711,994.8351648351648,-0.429565,0.080017,0.905396,4.687958,-3.155212,-1.607513,1,1,1,1,1,80.000000
2020-01-09 00:57:39.255,1.598475804806962,1.084915495840233,0.852678035493948,1.05285847695433,0.1813457378226015,0.7862002740461506,0.3949918685100999,0.5324547827612125,0.8116322500548717,0.783644319615633,0.7625941597668904,0.7954128221360318,0.411111126596861,0.2495573071239003,0.3926613410095634,0.2360039432392479,0.1677904873734089,-0.2990942193179157,0.1480194886267522,0.1555684620374901,690.6227106227107,736.959706959707,713.992673992674,683.3699633699634,669.2673992673992,-0.429565,0.080017,0.905396,4.687958,-3.155212,-1.607513,1,1,1,1,1,80.000000
2020-01-09 00:57:39.255,1.598475804806962,1.084915495840233,0.852678035493948,1.05285847695433,0.1813457378226015,0.7862002740461506,0.3949918685100999,0.5324547827612125,0.8116322500548717,0.783644319615633,0.7625941597668904,0.7954128221360318,0.411111126596861,0.2495573071239003,0.3926613410095634,0.2360039432392479,0.1677904873734089,-0.2990942193179157,0.1480194886267522,0.1555684620374901,710.3663003663004,740.5860805860806,710.3663003663004,667.2527472527473,548.7912087912088,-0.429565,0.080017,0.905396,4.687958,-3.155212,-1.607513,1,1,1,1,1,80.000000
2020-01-09 00:57:39.255,1.598475804806962,1.084915495840233,0.852678035493948,1.05285847695433,0.1813457378226015,0.7862002740461506,0.3949918685100999,0.5324547827612125,0.8116322500548717,0.783644319615633,0.7625941597668904,0.7954128221360318,0.411111126596861,0.2495573071239003,0.3926613410095634,0.2360039432392479,0.1677904873734089,-0.2990942193179157,0.1480194886267522,0.1555684620374901,838.4981684981685,749.4505494505495,740.989010989011,835.6776556776557,800.2197802197802,-0.433838,0.075195,0.908142,4.172058,-3.043060,-1.323395,1,1,1,1,1,80.000000
2020-01-09 00:57:39.255,1.598475804806962,1.084915495840233,0.852678035493948,1.05285847695433,0.1813457378226015,0.7862002740461506,0.3949918685100999,0.5324547827612125,0.8116322500548717,0.783644319615633,0.7625941597668904,0.7954128221360318,0.411111126596861,0.2495573071239003,0.3926613410095634,0.2360039432392479,0.1677904873734089,-0.2990942193179157,0.1480194886267522,0.1555684620374901,852.1978021978023,754.2857142857143,749.047619047619,893.2967032967033,1166.886446886447,-0.433838,0.075195,0.908142,4.172058,-3.043060,-1.323395,1,1,1,1,1,80.000000
2020-01-09 00:57:39.255,1.598475804806962,1.084915495840233,0.852678035493948,1.05285847695433,0.1813457378226015,0.7862002740461506,0.3949918685100999,0.5324547827612125,0.8116322500548717,0.783644319615633,0.7625941597668904,0.7954128221360318,0.411111126596861,0.2495573071239003,0.3926613410095634,0.2360039432392479,0.1677904873734089,-0.2990942193179157,0.1480194886267522,0.1555684620374901,730.9157509157509,752.2710622710623,722.8571428571429,738.1684981684982,987.5824175824176,-0.433838,0.075195,0.908142,4.172058,-3.043060,-1.323395,1,1,1,1,1,80.000000
2020-01-09 00:57:39.256,1.598475804806962,1.084915495840233,0.852678035493948,1.05285847695433,0.1813457378226015,0.7862002740461506,0.3949918685100999,0.5324547827612125,0.8116322500548717,0.783644319615633,0.7625941597668904,0.7954128221360318,0.411111126596861,0.2495573071239003,0.3926613410095634,0.2360039432392479,0.1677904873734089,-0.2990942193179157,0.1480194886267522,0.1555684620374901,689.4139194139194,753.4798534798535,722.4542124542124,647.9120879120879,511.3186813186813,-0.433838,0.075195,0.908142,4.172058,-3.043060,-1.323395,1,1,1,1,1,80.000000
2020-01-09 00:57:39.256,1.598475804806962,1.084915495840233,0.852678035493948,1.05285847695433,0.1813457378226015,0.7862002740461506,0.3949918685100999,0.5324547827612125,0.8116322500548717,0.783644319615633,0.7625941597668904,0.7954128221360318,0.411111126596861,0.2495573071239003,0.3926613410095634,0.2360039432392479,0.1677904873734089,-0.2990942193179157,0.1480194886267522,0.1555684620374901,807.8754578754579,761.5384615384615,749.047619047619,797.3992673992674,643.0769230769231,-0.433838,0.075195,0.908142,4.172058,-3.043060,-1.323395,1,1,1,1,1,80.000000
2020-01-09 00:57:39.256,1.598475804806962,1.084915495840233,0.852678035493948,1.05285847695433,0.1813457378226015,0.7862002740461506,0.3949918685100999,0.5324547827612125,0.8116322500548717,0.783644319615633,0.7625941597668904,0.7954128221360318,0.411111126596861,0.2495573071239003,0.3926613410095634,0.2360039432392479,0.1677904873734089,-0.2990942193179157,0.1480194886267522,0.1555684620374901,877.1794871794872,769.1941391941392,766.7765567765568,914.6520146520147,1048.827838827839,-0.433838,0.075195,0.908142,4.172058,-3.043060,-1.323395,1,1,1,1,1,80.000000
2020-01-09 00:57:39.256,1.598475804806962,1.084915495840233,0.852678035493948,1.05285847695433,0.1813457378226015,0.7862002740461506,0.3949918685100999,0.5324547827612125,0.8116322500548717,0.783644319615633,0.7625941597668904,0.7954128221360318,0.411111126596861,0.2495573071239003,0.3926613410095634,0.2360039432392479,0.1677904873734089,-0.2990942193179157,0.1480194886267522,0.1555684620374901,775.6410256410256,765.5677655677656,745.4212454212454,788.1318681318681,987.985347985348,-0.433838,0.075195,0.908142,4.172058,-3.043060,-1.323395,1,1,1,1,1,80.000000
2020-01-09 00:57:39.256,1.598475804806962,1.084915495840233,0.852678035493948,1.05285847695433,0.1813457378226015,0.7862002740461506,0.3949918685100999,0.5324547827612125,0.8116322500548717,0.783644319615633,0.7625941597668904,0.7954128221360318,0.411111126596861,0.2495573071239003,0.3926613410095634,0.2360039432392479,0.1677904873734089,-0.2990942193179157,0.1480194886267522,0.1555684620374901,689.0109890109891,759.92673992674,713.992673992674,651.1355311355312,589.8901098901099,-0.433838,0.075195,0.908142,4.172058,-3.043060,-1.323395,1,1,1,1,1,80.000000
2020-01-09 00:57:39.256,1.598475804806962,1.084915495840233,0.852678035493948,1.05285847695433,0.1813457378226015,0.7862002740461506,0.3949918685100999,0.5324547827612125,0.8116322500548717,0.783644319615633,0.7625941597668904,0.7954128221360318,0.411111126596861,0.2495573071239003,0.3926613410095634,0.2360039432392479,0.1677904873734089,-0.2990942193179157,0.1480194886267522,0.1555684620374901,771.6117216117216,761.941391941392,723.6630036630037,742.6007326007326,624.1391941391942,-0.433838,0.075195,0.908142,4.172058,-3.043060,-1.323395,1,1,1,1,1,80.000000
2020-01-09 00:57:39.257,1.598475804806962,1.084915495840233,0.852678035493948,1.05285847695433,0.1813457378226015,0.7862002740461506,0.3949918685100999,0.5324547827612125,0.8116322500548717,0.783644319615633,0.7625941597668904,0.7954128221360318,0.411111126596861,0.2495573071239003,0.3926613410095634,0.2360039432392479,0.1677904873734089,-0.2990942193179157,0.1480194886267522,0.1555684620374901,880.4029304029305,765.9706959706959,747.032967032967,906.996336996337,1123.772893772894,-0.433838,0.075195,0.908142,4.172058,-3.043060,-1.323395,1,1,1,1,1,80.000000
2020-01-09 00:57:39.257,1.598475804806962,1.084915495840233,0.852678035493948,1.05285847695433,0.1813457378226015,0.7862002740461506,0.3949918685100999,0.5324547827612125,0.8116322500548717,0.783644319615633,0.7625941597668904,0.7954128221360318,0.411111126596861,0.2495573071239003,0.3926613410095634,0.2360039432392479,0.1677904873734089,-0.2990942193179157,0.1480194886267522,0.1555684620374901,819.96336996337,767.985347985348,742.6007326007326,849.7802197802198,1317.582417582418,-0.433838,0.075195,0.908142,4.172058,-3.043060,-1.323395,1,1,1,1,1,80.000000
2020-01-09 00:57:39.257,1.598475804806962,1.084915495840233,0.852678035493948,1.05285847695433,0.1813457378226015,0.7862002740461506,0.3949918685100999,0.5324547827612125,0.8116322500548717,0.783644319615633,0.7625941597668904,0.7954128221360318,0.411111126596861,0.2495573071239003,0.3926613410095634,0.2360039432392479,0.1677904873734089,-0.2990942193179157,0.1480194886267522,0.1555684620374901,705.5311355311355,766.7765567765568,727.6923076923077,673.6996336996338,776.0439560439561,-0.433838,0.075195,0.908142,4.172058,-3.043060,-1.323395,1,1,1,1,1,80.000000
2020-01-09 00:57:39.257,1.598475804806962,1.084915495840233,0.852678035493948,1.05285847695433,0.1813457378226015,0.7862002740461506,0.3949918685100999,0.5324547827612125,0.8116322500548717,0.783644319615633,0.7625941597668904,0.7954128221360318,0.411111126596861,0.2495573071239003,0.3926613410095634,0.2360039432392479,0.1677904873734089,-0.2990942193179157,0.1480194886267522,0.1555684620374901,758.7179487179487,763.956043956044,732.9304029304029,707.948717948718,444.4322344322345,-0.432068,0.077942,0.908936,5.054321,-3.401947,-1.293488,1,1,1,1,1,80.000000
2020-01-09 00:57:39.257,1.598475804806962,1.084915495840233,0.852678035493948,1.05285847695433,0.1813457378226015,0.7862002740461506,0.3949918685100999,0.5324547827612125,0.8116322500548717,0.783644319615633,0.7625941597668904,0.7954128221360318,0.411111126596861,0.2495573071239003,0.3926613410095634,0.2360039432392479,0.1677904873734089,-0.2990942193179157,0.1480194886267522,0.1555684620374901,874.7619047619048,763.956043956044,763.5531135531136,887.6556776556777,751.8681318681319,-0.432068,0.077942,0.908936,5.054321,-3.401947,-1.293488,1,1,1,1,1,80.000000
2020-01-09 00:57:39.257,1.598475804806962,1.084915495840233,0.852678035493948,1.05285847695433,0.1813457378226015,0.7862002740461506,0.3949918685100999,0.5324547827612125,0.8116322500548717,0.783644319615633,0.7625941597668904,0.7954128221360318,0.411111126596861,0.2495573071239003,0.3926613410095634,0.2360039432392479,0.1677904873734089,-0.2990942193179157,0.1480194886267522,0.1555684620374901,841.7216117216118,757.9120879120879,764.3589743589744,882.8205128205128,987.985347985348,-0.432068,0.077942,0.908936,5.054321,-3.401947,-1.293488,1,1,1,1,1,80.000000
2020-01-09 00:57:39.258,1.598475804806962,1.084915495840233,0.852678035493948,1.05285847695433,0.1813457378226015,0.7862002740461506,0.3949918685100999,0.5324547827612125,0.8116322500548717,0.783644319615633,0.7625941597668904,0.7954128221360318,0.411111126596861,0.2495573071239003,0.3926613410095634,0.2360039432392479,0.1677904873734089,-0.2990942193179157,0.1480194886267522,0.1555684620374901,714.3956043956044,750.2564102564103,728.901098901099,700.6959706959707,677.3260073260074,-0.432068,0.077942,0.908936,5.054321,-3.401947,-1.293488,1,1,1,1,1,80.000000
2020-01-09 00:57:39.258,1.598475804806962,1.084915495840233,0.852678035493948,1.05285847695433,0.1813457378226015,0.7862002740461506,0.3949918685100999,0.5324547827612125,0.8116322500548717,0.783644319615633,0.7625941597668904,0.7954128221360318,0.411111126596861,0.2495573071239003,0.3926613410095634,0.2360039432392479,0.1677904873734089,-0.2990942193179157,0.1480194886267522,0.1555684620374901,720.0366300366301,752.6739926739926,722.0512820512821,668.4615384615385,456.1172161172161,-0.432068,0.077942,0.908936,5.054321,-3.401947,-1.293488,1,1,1,1,1,80.000000
2020-01-09 00:57:39.258,1.598475804806962,1.084915495840233,0.852678035493948,1.05285847695433,0.1813457378226015,0.7862002740461506,0.3949918685100999,0.5324547827612125,0.8116322500548717,0.783644319615633,0.7625941597668904,0.7954128221360318,0.411111126596861,0.2495573071239003,0.3926613410095634,0.2360039432392479,0.1677904873734089,-0.2990942193179157,0.1480194886267522,0.1555684620374901,845.7509157509157,753.8827838827839,750.6593406593407,842.5274725274726,876.7765567765568,-0.432068,0.077942,0.908936,5.054321,-3.401947,-1.293488,1,1,1,1,1,80.000000
2020-01-09 00:57:39.258,1.598475804806962,1.084915495840233,0.852678035493948,1.05285847695433,0.1813457378226015,0.7862002740461506,0.3949918685100999,0.5324547827612125,0.8116322500548717,0.783644319615633,0.7625941597668904,0.7954128221360318,0.411111126596861,0.2495573071239003,0.3926613410095634,0.2360039432392479,0.1677904873734089,-0.2990942193179157,0.1480194886267522,0.1555684620374901,873.956043956044,757.9120879120879,766.7765567765568,911.4285714285714,1221.684981684982,-0.432068,0.077942,0.908936,5.054321,-3.401947,-1.293488,1,1,1,1,1,80.000000
2020-01-09 00:57:39.258,1.684515864028197,1.078744627101968,0.8557639261103906,0.9913539073855757,0.1715832490427349,0.7394316124357255,0.445936224021471,0.4934909257725805,0.8116322500548717,0.7590886182930354,0.7873566878245302,0.8056490755194196,0.4266045992177397,0.2564384998161411,0.4119067974507188,0.2299476860991648,0.1387436610676611,-0.2949870361398114,0.1229081147205938,0.1483473835896745,755.8974358974359,758.3150183150184,742.1978021978023,750.6593406593407,897.7289377289378,-0.432068,0.077942,0.908936,5.054321,-3.401947,-1.293488,1,1,1,1,1,80.000000
2020-01-09 00:57:39.259,1.684515864028197,1.078744627101968,0.8557639261103906,0.9913539073855757,0.1715832490427349,0.7394316124357255,0.445936224021471,0.4934909257725805,0.8116322500548717,0.7590886182930354,0.7873566878245302,0.8056490755194196,0.4266045992177397,0.2564384998161411,0.4119067974507188,0.2299476860991648,0.1387436610676611,-0.2949870361398114,0.1229081147205938,0.1483473835896745,703.919413919414,755.0915750915751,720.0366300366301,650.3296703296703,512.1245421245421,-0.432068,0.077942,0.908936,5.054321,-3.401947,-1.293488,1,1,1,1,1,80.000000
2020-01-09 00:57:39.259,1.684515864028197,1.078744627101968,0.8557639261103906,0.9913539073855757,0.1715832490427349,0.7394316124357255,0.445936224021471,0.4934909257725805,0.8116322500548717,0.7590886182930354,0.7873566878245302,0.8056490755194196,0.4266045992177397,0.2564384998161411,0.4119067974507188,0.2299476860991648,0.1387436610676611,-0.2949870361398114,0.1229081147205938,0.1483473835896745,810.6959706959707,757.1062271062272,742.6007326007326,784.9084249084249,657.1794871794872,-0.432068,0.077942,0.908936,5.054321,-3.401947,-1.293488,1,1,1,1,1,80.000000
2020-01-09 00:57:39.260,1.684515864028197,1.078744627101968,0.8557639261103906,0.9913539073855757,0.1715832490427349,0.7394316124357255,0.445936224021471,0.4934909257725805,0.8116322500548717,0.7590886182930354,0.7873566878245302,0.8056490755194196,0.4266045992177397,0.2564384998161411,0.4119067974507188,0.2299476860991648,0.1387436610676611,-0.2949870361398114,0.1229081147205938,0.1483473835896745,882.8205128205128,763.1501831501831,769.1941391941392,912.6373626373627,1087.106227106227,-0.432068,0.077942,0.908936,5.054321,-3.401947,-1.293488,1,1,1,1,1,80.000000
2020-01-09 00:57:39.260,1.684515864028197,1.078744627101968,0.8557639261103906,0.9913539073855757,0.1715832490427349,0.7394316124357255,0.445936224021471,0.4934909257725805,0.8116322500548717,0.7590886182930354,0.7873566878245302,0.8056490755194196,0.4266045992177397,0.2564384998161411,0.4119067974507188,0.2299476860991648,0.1387436610676611,-0.2949870361398114,0.1229081147205938,0.1483473835896745,786.5201465201466,761.941391941392,749.4505494505495,802.2344322344322,1035.128205128205,-0.432068,0.077942,0.908936,5.054321,-3.401947,-1.293488,1,1,1,1,1,80.000000
2020-01-09 00:57:39.260,1.684515864028197,1.078744627101968,0.8557639261103906,0.9913539073855757,0.1715832490427349,0.7394316124357255,0.445936224021471,0.4934909257725805,0.8116322500548717,0.7590886182930354,0.7873566878245302,0.8056490755194196,0.4266045992177397,0.2564384998161411,0.4119067974507188,0.2299476860991648,0.1387436610676611,-0.2949870361398114,0.1229081147205938,0.1483473835896745,685.3846153846154,757.5091575091575,714.3956043956044,645.8974358974359,630.1831501831502,-0.426941,0.077087,0.900757,4.486084,-3.147736,-1.742096,1,1,1,1,1,80.000000
2020-01-09 00:57:39.260,1.684515864028197,1.078744627101968,0.8557639261103906,0.9913539073855757,0.1715832490427349,0.7394316124357255,0.445936224021471,0.4934909257725805,0.8116322500548717,0.7590886182930354,0.7873566878245302,0.8056490755194196,0.4266045992177397,0.2564384998161411,0.4119067974507188,0.2299476860991648,0.1387436610676611,-0.2949870361398114,0.1229081147205938,0.1483473835896745,764.3589743589744,764.3589743589744,719.6336996336996,730.1098901098901,817.948717948718,-0.426941,0.077087,0.900757,4.486084,-3.147736,-1.742096,1,1,1,1,1,80.000000
2020-01-09 00:57:39.260,1.684515864028197,1.078744627101968,0.8557639261103906,0.9913539073855757,0.1715832490427349,0.7394316124357255,0.445936224021471,0.4934909257725805,0.8116322500548717,0.7590886182930354,0.7873566878245302,0.8056490755194196,0.4266045992177397,0.2564384998161411,0.4119067974507188,0.2299476860991648,0.1387436610676611,-0.2949870361398114,0.1229081147205938,0.1483473835896745,871.5384615384615,777.6556776556777,755.4945054945055,893.2967032967033,1182.197802197802,-0.426941,0.077087,0.900757,4.486084,-3.147736,-1.742096,1,1,1,1,1,80.000000
2020-01-09 00:57:39.261,1.684515864028197,1.078744627101968,0.8557639261103906,0.9913539073855757,0.1715832490427349,0.7394316124357255,0.445936224021471,0.4934909257725805,0.8116322500548717,0.7590886182930354,0.7873566878245302,0.8056490755194196,0.4266045992177397,0.2564384998161411,0.4119067974507188,0.2299476860991648,0.1387436610676611,-0.2949870361398114,0.1229081147205938,0.1483473835896745,814.3223443223443,784.9084249084249,757.1062271062272,843.7362637362637,1091.941391941392,-0.426941,0.077087,0.900757,4.486084,-3.147736,-1.742096,1,1,1,1,1,80.000000
2020-01-09 00:57:39.261,1.684515864028197,1.078744627101968,0.8557639261103906,0.9913539073855757,0.1715832490427349,0.7394316124357255,0.445936224021471,0.4934909257725805,0.8116322500548717,0.7590886182930354,0.7873566878245302,0.8056490755194196,0.4266045992177397,0.2564384998161411,0.4119067974507188,0.2299476860991648,0.1387436610676611,-0.2949870361398114,0.1229081147205938,0.1483473835896745,701.9047619047619,789.7435897435897,726.8864468864469,674.1025641025641,697.4725274725275,-0.426941,0.077087,0.900757,4.486084,-3.147736,-1.742096,1,1,1,1,1,80.000000
2020-01-09 00:57:39.261,1.684515864028197,1.078744627101968,0.8557639261103906,0.9913539073855757,0.1715832490427349,0.7394316124357255,0.445936224021471,0.4934909257725805,0.8116322500548717,0.7590886182930354,0.7873566878245302,0.8056490755194196,0.4266045992177397,0.2564384998161411,0.4119067974507188,0.2299476860991648,0.1387436610676611,-0.2949870361398114,0.1229081147205938,0.1483473835896745,736.959706959707,794.5787545787546,719.2307692307693,685.7875457875458,562.4908424908425,-0.426941,0.077087,0.900757,4.486084,-3.147736,-1.742096,1,1,1,1,1,80.000000
2020-01-09 00:57:39.261,1.684515864028197,1.078744627101968,0.8557639261103906,0.9913539073855757,0.1715832490427349,0.7394316124357255,0.445936224021471,0.4934909257725805,0.8116322500548717,0.7590886182930354,0.7873566878245302,0.8056490755194196,0.4266045992177397,0.2564384998161411,0.4119067974507188,0.2299476860991648,0.1387436610676611,-0.2949870361398114,0.1229081147205938,0.1483473835896745,857.032967032967,802.2344322344322,745.4212454212454,863.4798534798535,931.5750915750916,-0.426941,0.077087,0.900757,4.486084,-3.147736,-1.742096,1,1,1,1,1,80.000000
2020-01-09 00:57:39.261,1.684515864028197,1.078744627101968,0.8557639261103906,0.9913539073855757,0.1715832490427349,0.7394316124357255,0.445936224021471,0.4934909257725805,0.8116322500548717,0.7590886182930354,0.7873566878245302,0.8056490755194196,0.4266045992177397,0.2564384998161411,0.4119067974507188,0.2299476860991648,0.1387436610676611,-0.2949870361398114,0.1229081147205938,0.1483473835896745,846.1538461538462,803.4432234432235,753.4798534798535,883.2234432234433,1133.846153846154,-0.426941,0.077087,0.900757,4.486084,-3.147736,-1.742096,1,1,1,1,1,80.000000
2020-01-09 00:57:39.261,1.684515864028197,1.078744627101968,0.8557639261103906,0.9913539073855757,0.1715832490427349,0.7394316124357255,0.445936224021471,0.4934909257725805,0.8116322500548717,0.7590886182930354,0.7873566878245302,0.8056490755194196,0.4266045992177397,0.2564384998161411,0.4119067974507188,0.2299476860991648,0.1387436610676611,-0.2949870361398114,0.1229081147205938,0.1483473835896745,727.6923076923077,794.5787545787546,720.4395604395604,706.3369963369963,960.5860805860806,-0.426941,0.077087,0.900757,4.486084,-3.147736,-1.742096,1,1,1,1,1,80.000000
2020-01-09 00:57:39.262,1.684515864028197,1.078744627101968,0.8557639261103906,0.9913539073855757,0.1715832490427349,0.7394316124357255,0.445936224021471,0.4934909257725805,0.8116322500548717,0.7590886182930354,0.7873566878245302,0.8056490755194196,0.4266045992177397,0.2564384998161411,0.4119067974507188,0.2299476860991648,0.1387436610676611,-0.2949870361398114,0.1229081147205938,0.1483473835896745,708.7545787545788,788.5347985347986,709.5604395604396,651.941391941392,757.5091575091575,-0.426941,0.077087,0.900757,4.486084,-3.147736,-1.742096,1,1,1,1,1,80.000000
2020-01-09 00:57:39.262,1.684515864028197,1.078744627101968,0.8557639261103906,0.9913539073855757,0.1715832490427349,0.7394316124357255,0.445936224021471,0.4934909257725805,0.8116322500548717,0.7590886182930354,0.7873566878245302,0.8056490755194196,0.4266045992177397,0.2564384998161411,0.4119067974507188,0.2299476860991648,0.1387436610676611,-0.2949870361398114,0.1229081147205938,0.1483473835896745,816.7399267399268,794.1758241758242,738.5714285714286,812.7106227106227,766.7765567765568,-0.426941,0.077087,0.900757,4.486084,-3.147736,-1.742096,1,1,1,1,1,80.000000
2020-01-09 00:57:39.262,1.684515864028197,1.078744627101968,0.8557639261103906,0.9913539073855757,0.1715832490427349,0.7394316124357255,0.445936224021471,0.4934909257725805,0.8116322500548717,0.7590886182930354,0.7873566878245302,0.8056490755194196,0.4266045992177397,0.2564384998161411,0.4119067974507188,0.2299476860991648,0.1387436610676611,-0.2949870361398114,0.1229081147205938,0.1483473835896745,858.6446886446887,796.1904761904763,751.8681318681319,900.952380952381,989.1941391941392,-0.426941,0.077087,0.900757,4.486084,-3.147736,-1.742096,1,1,1,1,1,80.000000
2020-01-09 00:57:39.262,1.684515864028197,1.078744627101968,0.8557639261103906,0.9913539073855757,0.1715832490427349,0.7394316124357255,0.445936224021471,0.4934909257725805,0.8116322500548717,0.7590886182930354,0.7873566878245302,0.8056490755194196,0.4266045992177397,0.2564384998161411,0.4119067974507188,0.2299476860991648,0.1387436610676611,-0.2949870361398114,0.1229081147205938,0.1483473835896745,758.3150183150184,789.7435897435897,735.7509157509157,753.0769230769231,857.4358974358975,-0.436340,0.075195,0.910645,4.710388,-2.968292,-1.360779,1,1,1,1,1,80.000000
2020-01-09 00:57:39.262,1.684515864028197,1.078744627101968,0.8557639261103906,0.9913539073855757,0.1715832490427349,0.7394316124357255,0.445936224021471,0.4934909257725805,0.8116322500548717,0.7590886182930354,0.7873566878245302,0.8056490755194196,0.4266045992177397,0.2564384998161411,0.4119067974507188,0.2299476860991648,0.1387436610676611,-0.2949870361398114,0.1229081147205938,0.1483473835896745,705.1282051282052,789.7435897435897,713.5897435897436,643.0769230769231,588.2783882783883,-0.436340,0.075195,0.910645,4.710388,-2.968292,-1.360779,1,1,1,1,1,80.000000
2020-01-09 00:57:39.262,1.684515864028197,1.078744627101968,0.8557639261103906,0.9913539073855757,0.1715832490427349,0.7394316124357255,0.445936224021471,0.4934909257725805,0.8116322500548717,0.7590886182930354,0.7873566878245302,0.8056490755194196,0.4266045992177397,0.2564384998161411,0.4119067974507188,0.2299476860991648,0.1387436610676611,-0.2949870361398114,0.1229081147205938,0.1483473835896745,795.7875457875458,793.3699633699634,731.3186813186813,768.3882783882784,674.9084249084249,-0.436340,0.075195,0.910645,4.710388,-2.968292,-1.360779,1,1,1,1,1,80.000000
2020-01-09 00:57:39.263,1.684515864028197,1.078744627101968,0.8557639261103906,0.9913539073855757,0.1715832490427349,0.7394316124357255,0.445936224021471,0.4934909257725805,0.8116322500548717,0.7590886182930354,0.7873566878245302,0.8056490755194196,0.4266045992177397,0.2564384998161411,0.4119067974507188,0.2299476860991648,0.1387436610676611,-0.2949870361398114,0.1229081147205938,0.1483473835896745,879.5970695970697,796.5934065934066,759.92673992674,907.3992673992674,1009.74358974359,-0.436340,0.075195,0.910645,4.710388,-2.968292,-1.360779,1,1,1,1,1,80.000000
2020-01-09 00:57:39.263,1.684515864028197,1.078744627101968,0.8557639261103906,0.9913539073855757,0.1715832490427349,0.7394316124357255,0.445936224021471,0.4934909257725805,0.8116322500548717,0.7590886182930354,0.7873566878245302,0.8056490755194196,0.4266045992177397,0.2564384998161411,0.4119067974507188,0.2299476860991648,0.1387436610676611,-0.2949870361398114,0.1229081147205938,0.1483473835896745,802.2344322344322,792.967032967033,744.2124542124542,811.0989010989011,1075.018315018315,-0.436340,0.075195,0.910645,4.710388,-2.968292,-1.360779,1,1,1,1,1,80.000000
2020-01-09 00:57:39.263,1.684515864028197,1.078744627101968,0.8557639261103906,0.9913539073855757,0.1715832490427349,0.7394316124357255,0.445936224021471,0.4934909257725805,0.8116322500548717,0.7590886182930354,0.7873566878245302,0.8056490755194196,0.4266045992177397,0.2564384998161411,0.4119067974507188,0.2299476860991648,0.1387436610676611,-0.2949870361398114,0.1229081147205938,0.1483473835896745,698.6813186813187,786.1172161172161,712.7838827838829,651.941391941392,678.9377289377289,-0.436340,0.075195,0.910645,4.710388,-2.968292,-1.360779,1,1,1,1,1,80.000000
2020-01-09 00:57:39.263,1.684515864028197,1.078744627101968,0.8557639261103906,0.9913539073855757,0.1715832490427349,0.7394316124357255,0.445936224021471,0.4934909257725805,0.8116322500548717,0.7590886182930354,0.7873566878245302,0.8056490755194196,0.4266045992177397,0.2564384998161411,0.4119067974507188,0.2299476860991648,0.1387436610676611,-0.2949870361398114,0.1229081147205938,0.1483473835896745,762.7472527472528,790.952380952381,725.6776556776557,714.3956043956044,617.6923076923077,-0.436340,0.075195,0.910645,4.710388,-2.968292,-1.360779,1,1,1,1,1,80.000000
2020-01-09 00:57:39.263,1.684515864028197,1.078744627101968,0.8557639261103906,0.9913539073855757,0.1715832490427349,0.7394316124357255,0.445936224021471,0.4934909257725805,0.8116322500548717,0.7590886182930354,0.7873566878245302,0.8056490755194196,0.4266045992177397,0.2564384998161411,0.4119067974507188,0.2299476860991648,0.1387436610676611,-0.2949870361398114,0.1229081147205938,0.1483473835896745,870.7326007326008,796.996336996337,762.7472527472528,880,989.1941391941392,-0.436340,0.075195,0.910645,4.710388,-2.968292,-1.360779,1,1,1,1,1,80.000000
2020-01-09 00:57:39.263,1.684515864028197,1.078744627101968,0.8557639261103906,0.9913539073855757,0.1715832490427349,0.7394316124357255,0.445936224021471,0.4934909257725805,0.8116322500548717,0.7590886182930354,0.7873566878245302,0.8056490755194196,0.4266045992177397,0.2564384998161411,0.4119067974507188,0.2299476860991648,0.1387436610676611,-0.2949870361398114,0.1229081147205938,0.1483473835896745,827.2161172161173,787.3260073260074,754.6886446886447,846.1538461538462,1073.809523809524,-0.436340,0.075195,0.910645,4.710388,-2.968292,-1.360779,1,1,1,1,1,80.000000
2020-01-09 00:57:39.264,1.740866862197765,1.103867381553273,0.8609676521339957,0.9072888419330396,0.1703386063704269,0.7137256811909136,0.5125223862733278,0.4685955318298797,0.8116322500548717,0.7637820113092063,0.8069154340276066,0.8320304735491902,0.4348079263517785,0.2595847869483399,0.42611406337739,0.2259203022946558,0.1213849936260834,-0.2835957797969347,0.1077092602106697,0.1537286908481529,710.7692307692308,778.8644688644689,713.5897435897436,669.6703296703297,782.0879120879121,-0.436340,0.075195,0.910645,4.710388,-2.968292,-1.360779,1,1,1,1,1,80.000000
2020-01-09 00:57:39.265,1.740866862197765,1.103867381553273,0.8609676521339957,0.9072888419330396,0.1703386063704269,0.7137256811909136,0.5125223862733278,0.4685955318298797,0.8116322500548717,0.7637820113092063,0.8069154340276066,0.8320304735491902,0.4348079263517785,0.2595847869483399,0.42611406337739,0.2259203022946558,0.1213849936260834,-0.2835957797969347,0.1077092602106697,0.1537286908481529,729.3040293040293,782.893772893773,708.7545787545788,674.9084249084249,556.8498168498169,-0.436340,0.075195,0.910645,4.710388,-2.968292,-1.360779,1,1,1,1,1,80.000000
2020-01-09 00:57:39.265,1.740866862197765,1.103867381553273,0.8609676521339957,0.9072888419330396,0.1703386063704269,0.7137256811909136,0.5125223862733278,0.4685955318298797,0.8116322500548717,0.7637820113092063,0.8069154340276066,0.8320304735491902,0.4348079263517785,0.2595847869483399,0.42611406337739,0.2259203022946558,0.1213849936260834,-0.2835957797969347,0.1077092602106697,0.1537286908481529,844.5421245421246,785.3113553113553,735.7509157509157,854.6153846153846,812.7106227106227,-0.436340,0.075195,0.910645,4.710388,-2.968292,-1.360779,1,1,1,1,1,80.000000
2020-01-09 00:57:39.265,1.740866862197765,1.103867381553273,0.8609676521339957,0.9072888419330396,0.1703386063704269,0.7137256811909136,0.5125223862733278,0.4685955318298797,0.8116322500548717,0.7637820113092063,0.8069154340276066,0.8320304735491902,0.4348079263517785,0.2595847869483399,0.42611406337739,0.2259203022946558,0.1213849936260834,-0.2835957797969347,0.1077092602106697,0.1537286908481529,848.1684981684982,788.9377289377289,735.7509157509157,894.5054945054945,1272.454212454212,-0.436340,0.075195,0.910645,4.710388,-2.968292,-1.360779,1,1,1,1,1,80.000000
2020-01-09 00:57:39.265,1.740866862197765,1.103867381553273,0.8609676521339957,0.9072888419330396,0.1703386063704269,0.7137256811909136,0.5125223862733278,0.4685955318298797,0.8116322500548717,0.7637820113092063,0.8069154340276066,0.8320304735491902,0.4348079263517785,0.2595847869483399,0.42611406337739,0.2259203022946558,0.1213849936260834,-0.2835957797969347,0.1077092602106697,0.1537286908481529,728.4981684981685,790.952380952381,713.992673992674,722.8571428571429,931.978021978022,-0.436340,0.075195,0.910645,4.710388,-2.968292,-1.360779,1,1,1,1,1,80.000000
2020-01-09 00:57:39.265,1.740866862197765,1.103867381553273,0.8609676521339957,0.9072888419330396,0.1703386063704269,0.7137256811909136,0.5125223862733278,0.4685955318298797,0.8116322500548717,0.7637820113092063,0.8069154340276066,0.8320304735491902,0.4348079263517785,0.2595847869483399,0.42611406337739,0.2259203022946558,0.1213849936260834,-0.2835957797969347,0.1077092602106697,0.1537286908481529,695.0549450549451,789.7435897435897,712.7838827838829,651.5384615384615,404.1391941391942,-0.436340,0.075195,0.910645,4.710388,-2.968292,-1.360779,1,1,1,1,1,80.000000
2020-01-09 00:57:39.265,1.740866862197765,1.103867381553273,0.8609676521339957,0.9072888419330396,0.1703386063704269,0.7137256811909136,0.5125223862733278,0.4685955318298797,0.8116322500548717,0.7637820113092063,0.8069154340276066,0.8320304735491902,0.4348079263517785,0.2595847869483399,0.42611406337739,0.2259203022946558,0.1213849936260834,-0.2835957797969347,0.1077092602106697,0.1537286908481529,802.6373626373627,785.7142857142858,732.5274725274726,802.6373626373627,701.0989010989011,-0.436340,0.075195,0.910645,4.710388,-2.968292,-1.360779,1,1,1,1,1,80.000000
2020-01-09 00:57:39.266,1.740866862197765,1.103867381553273,0.8609676521339957,0.9072888419330396,0.1703386063704269,0.7137256811909136,0.5125223862733278,0.4685955318298797,0.8116322500548717,0.7637820113092063,0.8069154340276066,0.8320304735491902,0.4348079263517785,0.2595847869483399,0.42611406337739,0.2259203022946558,0.1213849936260834,-0.2835957797969347,0.1077092602106697,0.1537286908481529,858.2417582417582,782.0879120879121,741.3919413919414,889.2673992673992,1064.542124542125,-0.436340,0.075195,0.910645,4.710388,-2.968292,-1.360779,1,1,1,1,1,80.000000
2020-01-09 00:57:39.266,1.740866862197765,1.103867381553273,0.8609676521339957,0.9072888419330396,0.1703386063704269,0.7137256811909136,0.5125223862733278,0.4685955318298797,0.8116322500548717,0.7637820113092063,0.8069154340276066,0.8320304735491902,0.4348079263517785,0.2595847869483399,0.42611406337739,0.2259203022946558,0.1213849936260834,-0.2835957797969347,0.1077092602106697,0.1537286908481529,759.1208791208792,772.8205128205128,714.3956043956044,759.1208791208792,975.8974358974359,-0.436340,0.075195,0.910645,4.710388,-2.968292,-1.360779,1,1,1,1,1,80.000000
2020-01-09 00:57:39.266,1.740866862197765,1.103867381553273,0.8609676521339957,0.9072888419330396,0.1703386063704269,0.7137256811909136,0.5125223862733278,0.4685955318298797,0.8116322500548717,0.7637820113092063,0.8069154340276066,0.8320304735491902,0.4348079263517785,0.2595847869483399,0.42611406337739,0.2259203022946558,0.1213849936260834,-0.2835957797969347,0.1077092602106697,0.1537286908481529,678.9377289377289,765.1648351648352,691.4285714285714,640.2564102564103,600.3663003663004,-0.436340,0.075195,0.910645,4.710388,-2.968292,-1.360779,1,1,1,1,1,80.000000
2020-01-09 00:57:39.266,1.740866862197765,1.103867381553273,0.8609676521339957,0.9072888419330396,0.1703386063704269,0.7137256811909136,0.5125223862733278,0.4685955318298797,0.8116322500548717,0.7637820113092063,0.8069154340276066,0.8320304735491902,0.4348079263517785,0.2595847869483399,0.42611406337739,0.2259203022946558,0.1213849936260834,-0.2835957797969347,0.1077092602106697,0.1537286908481529,766.3736263736264,769.5970695970697,715.2014652014652,749.8534798534798,777.2527472527473,-0.436340,0.075195,0.910645,4.710388,-2.968292,-1.360779,1,1,1,1,1,80.000000
2020-01-09 00:57:39.266,1.740866862197765,1.103867381553273,0.8609676521339957,0.9072888419330396,0.1703386063704269,0.7137256811909136,0.5125223862733278,0.4685955318298797,0.8116322500548717,0.7637820113092063,0.8069154340276066,0.8320304735491902,0.4348079263517785,0.2595847869483399,0.42611406337739,0.2259203022946558,0.1213849936260834,-0.2835957797969347,0.1077092602106697,0.1537286908481529,864.6886446886447,776.8498168498169,749.4505494505495,908.2051282051282,1345.787545787546,-0.436340,0.075195,0.910645,4.710388,-2.968292,-1.360779,1,1,1,1,1,80.000000
2020-01-09 00:57:39.266,1.740866862197765,1.103867381553273,0.8609676521339957,0.9072888419330396,0.1703386063704269,0.7137256811909136,0.5125223862733278,0.4685955318298797,0.8116322500548717,0.7637820113092063,0.8069154340276066,0.8320304735491902,0.4348079263517785,0.2595847869483399,0.42611406337739,0.2259203022946558,0.1213849936260834,-0.2835957797969347,0.1077092602106697,0.1537286908481529,784.9084249084249,772.014652014652,748.2417582417582,819.96336996337,1156.007326007326,-0.436340,0.075195,0.910645,4.710388,-2.968292,-1.360779,1,1,1,1,1,80.000000
2020-01-09 00:57:39.267,1.740866862197765,1.103867381553273,0.8609676521339957,0.9072888419330396,0.1703386063704269,0.7137256811909136,0.5125223862733278,0.4685955318298797,0.8116322500548717,0.7637820113092063,0.8069154340276066,0.8320304735491902,0.4348079263517785,0.2595847869483399,0.42611406337739,0.2259203022946558,0.1213849936260834,-0.2835957797969347,0.1077092602106697,0.1537286908481529,673.2967032967033,767.5824175824176,720.8424908424909,642.6739926739926,649.5238095238095,-0.436340,0.075195,0.910645,4.710388,-2.968292,-1.360779,1,1,1,1,1,80.000000
2020-01-09 00:57:39.267,1.740866862197765,1.103867381553273,0.8609676521339957,0.9072888419330396,0.1703386063704269,0.7137256811909136,0.5125223862733278,0.4685955318298797,0.8116322500548717,0.7637820113092063,0.8069154340276066,0.8320304735491902,0.4348079263517785,0.2595847869483399,0.42611406337739,0.2259203022946558,0.1213849936260834,-0.2835957797969347,0.1077092602106697,0.1537286908481529,738.1684981684982,776.8498168498169,729.3040293040293,693.040293040293,458.5347985347985,-0.436340,0.075195,0.910645,4.710388,-2.968292,-1.360779,1,1,1,1,1,80.000000
2020-01-09 00:57:39.267,1.740866862197765,1.103867381553273,0.8609676521339957,0.9072888419330396,0.1703386063704269,0.7137256811909136,0.5125223862733278,0.4685955318298797,0.8116322500548717,0.7637820113092063,0.8069154340276066,0.8320304735491902,0.4348079263517785,0.2595847869483399,0.42611406337739,0.2259203022946558,0.1213849936260834,-0.2835957797969347,0.1077092602106697,0.1537286908481529,859.8534798534798,782.4908424908425,759.1208791208792,867.1062271062272,790.1465201465202,-0.433838,0.078857,0.908203,4.456177,-3.484192,-1.712189,1,1,1,1,1,80.000000
2020-01-09 00:57:39.267,1.740866862197765,1.103867381553273,0.8609676521339957,0.9072888419330396,0.1703386063704269,0.7137256811909136,0.5125223862733278,0.4685955318298797,0.8116322500548717,0.7637820113092063,0.8069154340276066,0.8320304735491902,0.4348079263517785,0.2595847869483399,0.42611406337739,0.2259203022946558,0.1213849936260834,-0.2835957797969347,0.1077092602106697,0.1537286908481529,831.2454212454213,784.1025641025641,762.7472527472528,853.0036630036631,1016.593406593407,-0.433838,0.078857,0.908203,4.456177,-3.484192,-1.712189,1,1,1,1,1,80.000000
2020-01-09 00:57:39.267,1.740866862197765,1.103867381553273,0.8609676521339957,0.9072888419330396,0.1703386063704269,0.7137256811909136,0.5125223862733278,0.4685955318298797,0.8116322500548717,0.7637820113092063,0.8069154340276066,0.8320304735491902,0.4348079263517785,0.2595847869483399,0.42611406337739,0.2259203022946558,0.1213849936260834,-0.2835957797969347,0.1077092602106697,0.1537286908481529,711.5750915750916,780.8791208791209,735.7509157509157,678.9377289377289,644.2857142857143,-0.433838,0.078857,0.908203,4.456177,-3.484192,-1.712189,1,1,1,1,1,80.000000
2020-01-09 00:57:39.267,1.740866862197765,1.103867381553273,0.8609676521339957,0.9072888419330396,0.1703386063704269,0.7137256811909136,0.5125223862733278,0.4685955318298797,0.8116322500548717,0.7637820113092063,0.8069154340276066,0.8320304735491902,0.4348079263517785,0.2595847869483399,0.42611406337739,0.2259203022946558,0.1213849936260834,-0.2835957797969347,0.1077092602106697,0.1537286908481529,729.3040293040293,779.6703296703297,724.0659340659341,665.2380952380953,373.5164835164835,-0.433838,0.078857,0.908203,4.456177,-3.484192,-1.712189,1,1,1,1,1,80.000000
2020-01-09 00:57:39.268,1.740866862197765,1.103867381553273,0.8609676521339957,0.9072888419330396,0.1703386063704269,0.7137256811909136,0.5125223862733278,0.4685955318298797,0.8116322500548717,0.7637820113092063,0.8069154340276066,0.8320304735491902,0.4348079263517785,0.2595847869483399,0.42611406337739,0.2259203022946558,0.1213849936260834,-0.2835957797969347,0.1077092602106697,0.1537286908481529,852.6007326007326,786.1172161172161,755.0915750915751,832.4542124542124,622.9304029304029,-0.433838,0.078857,0.908203,4.456177,-3.484192,-1.712189,1,1,1,1,1,80.000000
2020-01-09 00:57:39.268,1.740866862197765,1.103867381553273,0.8609676521339957,0.9072888419330396,0.1703386063704269,0.7137256811909136,0.5125223862733278,0.4685955318298797,0.8116322500548717,0.7637820113092063,0.8069154340276066,0.8320304735491902,0.4348079263517785,0.2595847869483399,0.42611406337739,0.2259203022946558,0.1213849936260834,-0.2835957797969347,0.1077092602106697,0.1537286908481529,864.2857142857143,790.1465201465202,767.985347985348,887.2527472527473,940.0366300366301,-0.433838,0.078857,0.908203,4.456177,-3.484192,-1.712189,1,1,1,1,1,80.000000
2020-01-09 00:57:39.268,1.740866862197765,1.103867381553273,0.8609676521339957,0.9072888419330396,0.1703386063704269,0.7137256811909136,0.5125223862733278,0.4685955318298797,0.8116322500548717,0.7637820113092063,0.8069154340276066,0.8320304735491902,0.4348079263517785,0.2595847869483399,0.42611406337739,0.2259203022946558,0.1213849936260834,-0.2835957797969347,0.1077092602106697,0.1537286908481529,742.6007326007326,785.3113553113553,741.7948717948718,728.901098901099,867.1062271062272,-0.433838,0.078857,0.908203,4.456177,-3.484192,-1.712189,1,1,1,1,1,80.000000
2020-01-09 00:57:39.268,1.740866862197765,1.103867381553273,0.8609676521339957,0.9072888419330396,0.1703386063704269,0.7137256811909136,0.5125223862733278,0.4685955318298797,0.8116322500548717,0.7637820113092063,0.8069154340276066,0.8320304735491902,0.4348079263517785,0.2595847869483399,0.42611406337739,0.2259203022946558,0.1213849936260834,-0.2835957797969347,0.1077092602106697,0.1537286908481529,700.2930402930403,780.8791208791209,732.1245421245421,642.2710622710623,498.8278388278388,-0.433838,0.078857,0.908203,4.456177,-3.484192,-1.712189,1,1,1,1,1,80.000000
2020-01-09 00:57:39.268,1.740866862197765,1.103867381553273,0.8609676521339957,0.9072888419330396,0.1703386063704269,0.7137256811909136,0.5125223862733278,0.4685955318298797,0.8116322500548717,0.7637820113092063,0.8069154340276066,0.8320304735491902,0.4348079263517785,0.2595847869483399,0.42611406337739,0.2259203022946558,0.1213849936260834,-0.2835957797969347,0.1077092602106697,0.1537286908481529,816.7399267399268,784.1025641025641,759.5238095238095,791.7582417582418,652.3443223443223,-0.433838,0.078857,0.908203,4.456177,-3.484192,-1.712189,1,1,1,1,1,80.000000
2020-01-09 00:57:39.268,1.740866862197765,1.103867381553273,0.8609676521339957,0.9072888419330396,0.1703386063704269,0.7137256811909136,0.5125223862733278,0.4685955318298797,0.8116322500548717,0.7637820113092063,0.8069154340276066,0.8320304735491902,0.4348079263517785,0.2595847869483399,0.42611406337739,0.2259203022946558,0.1213849936260834,-0.2835957797969347,0.1077092602106697,0.1537286908481529,883.6263736263736,787.7289377289378,785.3113553113553,909.8168498168499,1081.868131868132,-0.433838,0.078857,0.908203,4.456177,-3.484192,-1.712189,1,1,1,1,1,80.000000
2020-01-09 00:57:39.269,1.740866862197765,1.103867381553273,0.8609676521339957,0.9072888419330396,0.1703386063704269,0.7137256811909136,0.5125223862733278,0.4685955318298797,0.8116322500548717,0.7637820113092063,0.8069154340276066,0.8320304735491902,0.4348079263517785,0.2595847869483399,0.42611406337739,0.2259203022946558,0.1213849936260834,-0.2835957797969347,0.1077092602106697,0.1537286908481529,790.5494505494506,781.6849816849817,762.7472527472528,787.3260073260074,940.8424908424909,-0.433838,0.078857,0.908203,4.456177,-3.484192,-1.712189,1,1,1,1,1,80.000000
2020-01-09 00:57:39.269,1.776795867334314,1.140418841632346,0.8883926499302101,0.8230540715525196,0.1747884159328752,0.6992181402339418,0.5717568528948185,0.4525786632911858,0.8042694099321065,0.7753019635033476,0.8274848009687266,0.8547439803259167,0.4356418893073069,0.2594629083044012,0.4376328976980273,0.2266994903308743,0.1169865015829487,-0.2645524934610047,0.1076173244448249,0.1694788678684475,709.1575091575091,778.0586080586081,724.8717948717949,651.5384615384615,795.3846153846154,-0.433838,0.078857,0.908203,4.456177,-3.484192,-1.712189,1,1,1,1,1,80.000000
2020-01-09 00:57:39.270,1.776795867334314,1.140418841632346,0.8883926499302101,0.8230540715525196,0.1747884159328752,0.6992181402339418,0.5717568528948185,0.4525786632911858,0.8042694099321065,0.7753019635033476,0.8274848009687266,0.8547439803259167,0.4356418893073069,0.2594629083044012,0.4376328976980273,0.2266994903308743,0.1169865015829487,-0.2645524934610047,0.1076173244448249,0.1694788678684475,783.6996336996338,784.9084249084249,748.2417582417582,741.7948717948718,832.0512820512821,-0.429626,0.076660,0.913391,4.276733,-3.798218,-1.801910,1,1,1,1,1,80.000000
2020-01-09 00:57:39.270,1.776795867334314,1.140418841632346,0.8883926499302101,0.8230540715525196,0.1747884159328752,0.6992181402339418,0.5717568528948185,0.4525786632911858,0.8042694099321065,0.7753019635033476,0.8274848009687266,0.8547439803259167,0.4356418893073069,0.2594629083044012,0.4376328976980273,0.2266994903308743,0.1169865015829487,-0.2645524934610047,0.1076173244448249,0.1694788678684475,877.1794871794872,791.3553113553114,787.3260073260074,894.5054945054945,1008.534798534799,-0.429626,0.076660,0.913391,4.276733,-3.798218,-1.801910,1,1,1,1,1,80.000000
2020-01-09 00:57:39.270,1.776795867334314,1.140418841632346,0.8883926499302101,0.8230540715525196,0.1747884159328752,0.6992181402339418,0.5717568528948185,0.4525786632911858,0.8042694099321065,0.7753019635033476,0.8274848009687266,0.8547439803259167,0.4356418893073069,0.2594629083044012,0.4376328976980273,0.2266994903308743,0.1169865015829487,-0.2645524934610047,0.1076173244448249,0.1694788678684475,811.9047619047619,787.7289377289378,772.4175824175825,834.4688644688645,1052.051282051282,-0.429626,0.076660,0.913391,4.276733,-3.798218,-1.801910,1,1,1,1,1,80.000000
2020-01-09 00:57:39.270,1.776795867334314,1.140418841632346,0.8883926499302101,0.8230540715525196,0.1747884159328752,0.6992181402339418,0.5717568528948185,0.4525786632911858,0.8042694099321065,0.7753019635033476,0.8274848009687266,0.8547439803259167,0.4356418893073069,0.2594629083044012,0.4376328976980273,0.2266994903308743,0.1169865015829487,-0.2645524934610047,0.1076173244448249,0.1694788678684475,695.4578754578755,777.6556776556777,745.4212454212454,657.985347985348,712.7838827838829,-0.429626,0.076660,0.913391,4.276733,-3.798218,-1.801910,1,1,1,1,1,80.000000
2020-01-09 00:57:39.270,1.776795867334314,1.140418841632346,0.8883926499302101,0.8230540715525196,0.1747884159328752,0.6992181402339418,0.5717568528948185,0.4525786632911858,0.8042694099321065,0.7753019635033476,0.8274848009687266,0.8547439803259167,0.4356418893073069,0.2594629083044012,0.4376328976980273,0.2266994903308743,0.1169865015829487,-0.2645524934610047,0.1076173244448249,0.1694788678684475,741.3919413919414,778.0586080586081,755.4945054945055,686.996336996337,631.7948717948718,-0.429626,0.076660,0.913391,4.276733,-3.798218,-1.801910,1,1,1,1,1,80.000000
2020-01-09 00:57:39.270,1.776795867334314,1.140418841632346,0.8883926499302101,0.8230540715525196,0.1747884159328752,0.6992181402339418,0.5717568528948185,0.4525786632911858,0.8042694099321065,0.7753019635033476,0.8274848009687266,0.8547439803259167,0.4356418893073069,0.2594629083044012,0.4376328976980273,0.2266994903308743,0.1169865015829487,-0.2645524934610047,0.1076173244448249,0.1694788678684475,855.8241758241759,784.1025641025641,782.0879120879121,860.2564102564103,959.7802197802198,-0.429626,0.076660,0.913391,4.276733,-3.798218,-1.801910,1,1,1,1,1,80.000000
2020-01-09 00:57:39.270,1.776795867334314,1.140418841632346,0.8883926499302101,0.8230540715525196,0.1747884159328752,0.6992181402339418,0.5717568528948185,0.4525786632911858,0.8042694099321065,0.7753019635033476,0.8274848009687266,0.8547439803259167,0.4356418893073069,0.2594629083044012,0.4376328976980273,0.2266994903308743,0.1169865015829487,-0.2645524934610047,0.1076173244448249,0.1694788678684475,839.3040293040293,782.4908424908425,776.4468864468864,868.3150183150184,1268.021978021978,-0.429626,0.076660,0.913391,4.276733,-3.798218,-1.801910,1,1,1,1,1,80.000000
2020-01-09 00:57:39.271,1.776795867334314,1.140418841632346,0.8883926499302101,0.8230540715525196,0.1747884159328752,0.6992181402339418,0.5717568528948185,0.4525786632911858,0.8042694099321065,0.7753019635033476,0.8274848009687266,0.8547439803259167,0.4356418893073069,0.2594629083044012,0.4376328976980273,0.2266994903308743,0.1169865015829487,-0.2645524934610047,0.1076173244448249,0.1694788678684475,722.8571428571429,776.4468864468864,741.3919413919414,698.6813186813187,1065.750915750916,-0.429626,0.076660,0.913391,4.276733,-3.798218,-1.801910,1,1,1,1,1,80.000000
2020-01-09 00:57:39.271,1.776795867334314,1.140418841632346,0.8883926499302101,0.8230540715525196,0.1747884159328752,0.6992181402339418,0.5717568528948185,0.4525786632911858,0.8042694099321065,0.7753019635033476,0.8274848009687266,0.8547439803259167,0.4356418893073069,0.2594629083044012,0.4376328976980273,0.2266994903308743,0.1169865015829487,-0.2645524934610047,0.1076173244448249,0.1694788678684475,710.3663003663004,771.6117216117216,734.1391941391942,653.5531135531136,630.5860805860806,-0.429626,0.076660,0.913391,4.276733,-3.798218,-1.801910,1,1,1,1,1,80.000000
2020-01-09 00:57:39.271,1.776795867334314,1.140418841632346,0.8883926499302101,0.8230540715525196,0.1747884159328752,0.6992181402339418,0.5717568528948185,0.4525786632911858,0.8042694099321065,0.7753019635033476,0.8274848009687266,0.8547439803259167,0.4356418893073069,0.2594629083044012,0.4376328976980273,0.2266994903308743,0.1169865015829487,-0.2645524934610047,0.1076173244448249,0.1694788678684475,827.2161172161173,774.4322344322345,765.1648351648352,818.7545787545788,733.7362637362637,-0.429626,0.076660,0.913391,4.276733,-3.798218,-1.801910,1,1,1,1,1,80.000000
2020-01-09 00:57:39.271,1.776795867334314,1.140418841632346,0.8883926499302101,0.8230540715525196,0.1747884159328752,0.6992181402339418,0.5717568528948185,0.4525786632911858,0.8042694099321065,0.7753019635033476,0.8274848009687266,0.8547439803259167,0.4356418893073069,0.2594629083044012,0.4376328976980273,0.2266994903308743,0.1169865015829487,-0.2645524934610047,0.1076173244448249,0.1694788678684475,860.2564102564103,777.2527472527473,780.8791208791209,892.4908424908425,1022.234432234432,-0.429626,0.076660,0.913391,4.276733,-3.798218,-1.801910,1,1,1,1,1,80.000000
2020-01-09 00:57:39.271,1.776795867334314,1.140418841632346,0.8883926499302101,0.8230540715525196,0.1747884159328752,0.6992181402339418,0.5717568528948185,0.4525786632911858,0.8042694099321065,0.7753019635033476,0.8274848009687266,0.8547439803259167,0.4356418893073069,0.2594629083044012,0.4376328976980273,0.2266994903308743,0.1169865015829487,-0.2645524934610047,0.1076173244448249,0.1694788678684475,743.4065934065934,767.1794871794872,751.8681318681319,738.974358974359,927.5457875457876,-0.429626,0.076660,0.913391,4.276733,-3.798218,-1.801910,1,1,1,1,1,80.000000
2020-01-09 00:57:39.271,1.776795867334314,1.140418841632346,0.8883926499302101,0.8230540715525196,0.1747884159328752,0.6992181402339418,0.5717568528948185,0.4525786632911858,0.8042694099321065,0.7753019635033476,0.8274848009687266,0.8547439803259167,0.4356418893073069,0.2594629083044012,0.4376328976980273,0.2266994903308743,0.1169865015829487,-0.2645524934610047,0.1076173244448249,0.1694788678684475,684.1758241758242,761.941391941392,734.1391941391942,636.6300366300367,494.3956043956044,-0.428650,0.078552,0.906738,4.665527,-2.788849,-1.644897,1,1,1,1,1,80.000000
2020-01-09 00:57:39.271,1.776795867334314,1.140418841632346,0.8883926499302101,0.8230540715525196,0.1747884159328752,0.6992181402339418,0.5717568528948185,0.4525786632911858,0.8042694099321065,0.7753019635033476,0.8274848009687266,0.8547439803259167,0.4356418893073069,0.2594629083044012,0.4376328976980273,0.2266994903308743,0.1169865015829487,-0.2645524934610047,0.1076173244448249,0.1694788678684475,784.9084249084249,762.7472527472528,755.0915750915751,772.4175824175825,490.7692307692308,-0.428650,0.078552,0.906738,4.665527,-2.788849,-1.644897,1,1,1,1,1,80.000000
2020-01-09 00:57:39.272,1.776795867334314,1.140418841632346,0.8883926499302101,0.8230540715525196,0.1747884159328752,0.6992181402339418,0.5717568528948185,0.4525786632911858,0.8042694099321065,0.7753019635033476,0.8274848009687266,0.8547439803259167,0.4356418893073069,0.2594629083044012,0.4376328976980273,0.2266994903308743,0.1169865015829487,-0.2645524934610047,0.1076173244448249,0.1694788678684475,861.0622710622711,767.5824175824176,778.0586080586081,898.9377289377289,937.6190476190476,-0.428650,0.078552,0.906738,4.665527,-2.788849,-1.644897,1,1,1,1,1,80.000000
2020-01-09 00:57:39.272,1.776795867334314,1.140418841632346,0.8883926499302101,0.8230540715525196,0.1747884159328752,0.6992181402339418,0.5717568528948185,0.4525786632911858,0.8042694099321065,0.7753019635033476,0.8274848009687266,0.8547439803259167,0.4356418893073069,0.2594629083044012,0.4376328976980273,0.2266994903308743,0.1169865015829487,-0.2645524934610047,0.1076173244448249,0.1694788678684475,775.6410256410256,768.7912087912088,772.8205128205128,796.996336996337,944.0659340659341,-0.428650,0.078552,0.906738,4.665527,-2.788849,-1.644897,1,1,1,1,1,80.000000
2020-01-09 00:57:39.272,1.776795867334314,1.140418841632346,0.8883926499302101,0.8230540715525196,0.1747884159328752,0.6992181402339418,0.5717568528948185,0.4525786632911858,0.8042694099321065,0.7753019635033476,0.8274848009687266,0.8547439803259167,0.4356418893073069,0.2594629083044012,0.4376328976980273,0.2266994903308743,0.1169865015829487,-0.2645524934610047,0.1076173244448249,0.1694788678684475,679.3406593406594,763.956043956044,745.4212454212454,652.7472527472528,537.5091575091575,-0.428650,0.078552,0.906738,4.665527,-2.788849,-1.644897,1,1,1,1,1,80.000000
2020-01-09 00:57:39.272,1.776795867334314,1.140418841632346,0.8883926499302101,0.8230540715525196,0.1747884159328752,0.6992181402339418,0.5717568528948185,0.4525786632911858,0.8042694099321065,0.7753019635033476,0.8274848009687266,0.8547439803259167,0.4356418893073069,0.2594629083044012,0.4376328976980273,0.2266994903308743,0.1169865015829487,-0.2645524934610047,0.1076173244448249,0.1694788678684475,749.047619047619,765.9706959706959,743.8095238095239,730.9157509157509,487.1428571428572,-0.428650,0.078552,0.906738,4.665527,-2.788849,-1.644897,1,1,1,1,1,80.000000
2020-01-09 00:57:39.272,1.776795867334314,1.140418841632346,0.8883926499302101,0.8230540715525196,0.1747884159328752,0.6992181402339418,0.5717568528948185,0.4525786632911858,0.8042694099321065,0.7753019635033476,0.8274848009687266,0.8547439803259167,0.4356418893073069,0.2594629083044012,0.4376328976980273,0.2266994903308743,0.1169865015829487,-0.2645524934610047,0.1076173244448249,0.1694788678684475,853.0036630036631,772.014652014652,772.014652014652,900.952380952381,895.7142857142858,-0.428650,0.078552,0.906738,4.665527,-2.788849,-1.644897,1,1,1,1,1,80.000000
2020-01-09 00:57:39.272,1.776795867334314,1.140418841632346,0.8883926499302101,0.8230540715525196,0.1747884159328752,0.6992181402339418,0.5717568528948185,0.4525786632911858,0.8042694099321065,0.7753019635033476,0.8274848009687266,0.8547439803259167,0.4356418893073069,0.2594629083044012,0.4376328976980273,0.2266994903308743,0.1169865015829487,-0.2645524934610047,0.1076173244448249,0.1694788678684475,802.6373626373627,772.014652014652,767.1794871794872,861.0622710622711,1049.6336996337,-0.428650,0.078552,0.906738,4.665527,-2.788849,-1.644897,1,1,1,1,1,80.000000
2020-01-09 00:57:39.272,1.776795867334314,1.140418841632346,0.8883926499302101,0.8230540715525196,0.1747884159328752,0.6992181402339418,0.5717568528948185,0.4525786632911858,0.8042694099321065,0.7753019635033476,0.8274848009687266,0.8547439803259167,0.4356418893073069,0.2594629083044012,0.4376328976980273,0.2266994903308743,0.1169865015829487,-0.2645524934610047,0.1076173244448249,0.1694788678684475,694.2490842490843,769.5970695970697,736.5567765567765,682.5641025641025,669.6703296703297,-0.428650,0.078552,0.906738,4.665527,-2.788849,-1.644897,1,1,1,1,1,80.000000
2020-01-09 00:57:39.272,1.776795867334314,1.140418841632346,0.8883926499302101,0.8230540715525196,0.1747884159328752,0.6992181402339418,0.5717568528948185,0.4525786632911858,0.8042694099321065,0.7753019635033476,0.8274848009687266,0.8547439803259167,0.4356418893073069,0.2594629083044012,0.4376328976980273,0.2266994903308743,0.1169865015829487,-0.2645524934610047,0.1076173244448249,0.1694788678684475,730.9157509157509,771.6117216117216,733.7362637362637,692.2344322344322,520.1831501831502,-0.428650,0.078552,0.906738,4.665527,-2.788849,-1.644897,1,1,1,1,1,80.000000
2020-01-09 00:57:39.273,1.776795867334314,1.140418841632346,0.8883926499302101,0.8230540715525196,0.1747884159328752,0.6992181402339418,0.5717568528948185,0.4525786632911858,0.8042694099321065,0.7753019635033476,0.8274848009687266,0.8547439803259167,0.4356418893073069,0.2594629083044012,0.4376328976980273,0.2266994903308743,0.1169865015829487,-0.2645524934610047,0.1076173244448249,0.1694788678684475,849.7802197802198,771.2087912087912,751.4652014652015,875.5677655677656,1095.567765567765,-0.428650,0.078552,0.906738,4.665527,-2.788849,-1.644897,1,1,1,1,1,80.000000
2020-01-09 00:57:39.273,1.776795867334314,1.140418841632346,0.8883926499302101,0.8230540715525196,0.1747884159328752,0.6992181402339418,0.5717568528948185,0.4525786632911858,0.8042694099321065,0.7753019635033476,0.8274848009687266,0.8547439803259167,0.4356418893073069,0.2594629083044012,0.4376328976980273,0.2266994903308743,0.1169865015829487,-0.2645524934610047,0.1076173244448249,0.1694788678684475,840.9157509157509,778.8644688644689,762.3443223443223,898.1318681318681,1265.201465201465,-0.428650,0.078552,0.906738,4.665527,-2.788849,-1.644897,1,1,1,1,1,80.000000
2020-01-09 00:57:39.273,1.776795867334314,1.140418841632346,0.8883926499302101,0.8230540715525196,0.1747884159328752,0.6992181402339418,0.5717568528948185,0.4525786632911858,0.8042694099321065,0.7753019635033476,0.8274848009687266,0.8547439803259167,0.4356418893073069,0.2594629083044012,0.4376328976980273,0.2266994903308743,0.1169865015829487,-0.2645524934610047,0.1076173244448249,0.1694788678684475,714.7985347985348,778.8644688644689,736.5567765567765,712.3809523809524,767.1794871794872,-0.434204,0.076599,0.906433,4.254303,-3.521576,-1.517792,1,1,1,1,1,80.000000
2020-01-09 00:57:39.273,1.798003897266279,1.195033925366727,0.9310369690263759,0.7591844089707157,0.1916523153763558,0.6992393761299692,0.6148986574254782,0.4334418152719912,0.7685098570399058,0.8292962923851629,0.8411266288207205,0.8547439803259167,0.4322089809312513,0.2614995386477935,0.4472905849897633,0.2306983823116618,0.1177806782344444,-0.2446641436434948,0.1211041888254911,0.185403632296459,694.6520146520147,773.2234432234433,713.992673992674,656.7765567765568,400.5128205128205,-0.434204,0.076599,0.906433,4.254303,-3.521576,-1.517792,1,1,1,1,1,80.000000
2020-01-09 00:57:39.274,1.798003897266279,1.195033925366727,0.9310369690263759,0.7591844089707157,0.1916523153763558,0.6992393761299692,0.6148986574254782,0.4334418152719912,0.7685098570399058,0.8292962923851629,0.8411266288207205,0.8547439803259167,0.4322089809312513,0.2614995386477935,0.4472905849897633,0.2306983823116618,0.1177806782344444,-0.2446641436434948,0.1211041888254911,0.185403632296459,809.8901098901099,780.8791208791209,741.7948717948718,818.3516483516484,656.7765567765568,-0.434204,0.076599,0.906433,4.254303,-3.521576,-1.517792,1,1,1,1,1,80.000000
2020-01-09 00:57:39.274,1.798003897266279,1.195033925366727,0.9310369690263759,0.7591844089707157,0.1916523153763558,0.6992393761299692,0.6148986574254782,0.4334418152719912,0.7685098570399058,0.8292962923851629,0.8411266288207205,0.8547439803259167,0.4322089809312513,0.2614995386477935,0.4472905849897633,0.2306983823116618,0.1177806782344444,-0.2446641436434948,0.1211041888254911,0.185403632296459,851.3919413919414,784.9084249084249,761.941391941392,899.7435897435897,1064.139194139194,-0.434204,0.076599,0.906433,4.254303,-3.521576,-1.517792,1,1,1,1,1,80.000000
2020-01-09 00:57:39.274,1.798003897266279,1.195033925366727,0.9310369690263759,0.7591844089707157,0.1916523153763558,0.6992393761299692,0.6148986574254782,0.4334418152719912,0.7685098570399058,0.8292962923851629,0.8411266288207205,0.8547439803259167,0.4322089809312513,0.2614995386477935,0.4472905849897633,0.2306983823116618,0.1177806782344444,-0.2446641436434948,0.1211041888254911,0.185403632296459,750.2564102564103,784.5054945054945,742.1978021978023,757.1062271062272,863.0769230769231,-0.434204,0.076599,0.906433,4.254303,-3.521576,-1.517792,1,1,1,1,1,80.000000
2020-01-09 00:57:39.274,1.798003897266279,1.195033925366727,0.9310369690263759,0.7591844089707157,0.1916523153763558,0.6992393761299692,0.6148986574254782,0.4334418152719912,0.7685098570399058,0.8292962923851629,0.8411266288207205,0.8547439803259167,0.4322089809312513,0.2614995386477935,0.4472905849897633,0.2306983823116618,0.1177806782344444,-0.2446641436434948,0.1211041888254911,0.185403632296459,693.8461538461538,780.0732600732601,710.3663003663004,649.1208791208792,714.7985347985348,-0.434204,0.076599,0.906433,4.254303,-3.521576,-1.517792,1,1,1,1,1,80.000000
2020-01-09 00:57:39.274,1.798003897266279,1.195033925366727,0.9310369690263759,0.7591844089707157,0.1916523153763558,0.6992393761299692,0.6148986574254782,0.4334418152719912,0.7685098570399058,0.8292962923851629,0.8411266288207205,0.8547439803259167,0.4322089809312513,0.2614995386477935,0.4472905849897633,0.2306983823116618,0.1177806782344444,-0.2446641436434948,0.1211041888254911,0.185403632296459,790.5494505494506,777.2527472527473,725.6776556776557,773.2234432234433,939.6336996336996,-0.434204,0.076599,0.906433,4.254303,-3.521576,-1.517792,1,1,1,1,1,80.000000
2020-01-09 00:57:39.275,1.798003897266279,1.195033925366727,0.9310369690263759,0.7591844089707157,0.1916523153763558,0.6992393761299692,0.6148986574254782,0.4334418152719912,0.7685098570399058,0.8292962923851629,0.8411266288207205,0.8547439803259167,0.4322089809312513,0.2614995386477935,0.4472905849897633,0.2306983823116618,0.1177806782344444,-0.2446641436434948,0.1211041888254911,0.185403632296459,867.9120879120879,784.1025641025641,768.3882783882784,907.8021978021978,1117.728937728938,-0.434204,0.076599,0.906433,4.254303,-3.521576,-1.517792,1,1,1,1,1,80.000000
2020-01-09 00:57:39.275,1.798003897266279,1.195033925366727,0.9310369690263759,0.7591844089707157,0.1916523153763558,0.6992393761299692,0.6148986574254782,0.4334418152719912,0.7685098570399058,0.8292962923851629,0.8411266288207205,0.8547439803259167,0.4322089809312513,0.2614995386477935,0.4472905849897633,0.2306983823116618,0.1177806782344444,-0.2446641436434948,0.1211041888254911,0.185403632296459,782.893772893773,779.2673992673992,761.5384615384615,813.1135531135532,1051.245421245421,-0.434204,0.076599,0.906433,4.254303,-3.521576,-1.517792,1,1,1,1,1,80.000000
2020-01-09 00:57:39.275,1.798003897266279,1.195033925366727,0.9310369690263759,0.7591844089707157,0.1916523153763558,0.6992393761299692,0.6148986574254782,0.4334418152719912,0.7685098570399058,0.8292962923851629,0.8411266288207205,0.8547439803259167,0.4322089809312513,0.2614995386477935,0.4472905849897633,0.2306983823116618,0.1177806782344444,-0.2446641436434948,0.1211041888254911,0.185403632296459,684.981684981685,770,732.1245421245421,651.5384615384615,629.3772893772893,-0.434204,0.076599,0.906433,4.254303,-3.521576,-1.517792,1,1,1,1,1,80.000000
2020-01-09 00:57:39.275,1.798003897266279,1.195033925366727,0.9310369690263759,0.7591844089707157,0.1916523153763558,0.6992393761299692,0.6148986574254782,0.4334418152719912,0.7685098570399058,0.8292962923851629,0.8411266288207205,0.8547439803259167,0.4322089809312513,0.2614995386477935,0.4472905849897633,0.2306983823116618,0.1177806782344444,-0.2446641436434948,0.1211041888254911,0.185403632296459,749.4505494505495,772.4175824175825,737.7655677655678,714.7985347985348,494.7985347985348,-0.434204,0.076599,0.906433,4.254303,-3.521576,-1.517792,1,1,1,1,1,80.000000
2020-01-09 00:57:39.275,1.798003897266279,1.195033925366727,0.9310369690263759,0.7591844089707157,0.1916523153763558,0.6992393761299692,0.6148986574254782,0.4334418152719912,0.7685098570399058,0.8292962923851629,0.8411266288207205,0.8547439803259167,0.4322089809312513,0.2614995386477935,0.4472905849897633,0.2306983823116618,0.1177806782344444,-0.2446641436434948,0.1211041888254911,0.185403632296459,860.2564102564103,778.0586080586081,765.9706959706959,883.2234432234433,822.3809523809524,-0.434204,0.076599,0.906433,4.254303,-3.521576,-1.517792,1,1,1,1,1,80.000000
2020-01-09 00:57:39.275,1.798003897266279,1.195033925366727,0.9310369690263759,0.7591844089707157,0.1916523153763558,0.6992393761299692,0.6148986574254782,0.4334418152719912,0.7685098570399058,0.8292962923851629,0.8411266288207205,0.8547439803259167,0.4322089809312513,0.2614995386477935,0.4472905849897633,0.2306983823116618,0.1177806782344444,-0.2446641436434948,0.1211041888254911,0.185403632296459,822.3809523809524,779.2673992673992,763.5531135531136,848.974358974359,933.5897435897436,-0.434204,0.076599,0.906433,4.254303,-3.521576,-1.517792,1,1,1,1,1,80.000000
2020-01-09 00:57:39.275,1.798003897266279,1.195033925366727,0.9310369690263759,0.7591844089707157,0.1916523153763558,0.6992393761299692,0.6148986574254782,0.4334418152719912,0.7685098570399058,0.8292962923851629,0.8411266288207205,0.8547439803259167,0.4322089809312513,0.2614995386477935,0.4472905849897633,0.2306983823116618,0.1177806782344444,-0.2446641436434948,0.1211041888254911,0.185403632296459,694.2490842490843,770.4029304029305,725.6776556776557,679.3406593406594,819.96336996337,-0.434204,0.076599,0.906433,4.254303,-3.521576,-1.517792,1,1,1,1,1,80.000000
2020-01-09 00:57:39.275,1.798003897266279,1.195033925366727,0.9310369690263759,0.7591844089707157,0.1916523153763558,0.6992393761299692,0.6148986574254782,0.4334418152719912,0.7685098570399058,0.8292962923851629,0.8411266288207205,0.8547439803259167,0.4322089809312513,0.2614995386477935,0.4472905849897633,0.2306983823116618,0.1177806782344444,-0.2446641436434948,0.1211041888254911,0.185403632296459,704.3223443223443,766.3736263736264,723.6630036630037,673.2967032967033,728.901098901099,-0.434204,0.076599,0.906433,4.254303,-3.521576,-1.517792,1,1,1,1,1,80.000000
2020-01-09 00:57:39.276,1.798003897266279,1.195033925366727,0.9310369690263759,0.7591844089707157,0.1916523153763558,0.6992393761299692,0.6148986574254782,0.4334418152719912,0.7685098570399058,0.8292962923851629,0.8411266288207205,0.8547439803259167,0.4322089809312513,0.2614995386477935,0.4472905849897633,0.2306983823116618,0.1177806782344444,-0.2446641436434948,0.1211041888254911,0.185403632296459,824.3956043956044,769.1941391941392,761.1355311355312,827.2161172161173,805.8608058608058,-0.434204,0.076599,0.906433,4.254303,-3.521576,-1.517792,1,1,1,1,1,80.000000
2020-01-09 00:57:39.276,1.798003897266279,1.195033925366727,0.9310369690263759,0.7591844089707157,0.1916523153763558,0.6992393761299692,0.6148986574254782,0.4334418152719912,0.7685098570399058,0.8292962923851629,0.8411266288207205,0.8547439803259167,0.4322089809312513,0.2614995386477935,0.4472905849897633,0.2306983823116618,0.1177806782344444,-0.2446641436434948,0.1211041888254911,0.185403632296459,827.2161172161173,763.956043956044,766.3736263736264,858.6446886446887,1095.567765567765,-0.434204,0.076599,0.906433,4.254303,-3.521576,-1.517792,1,1,1,1,1,80.000000
2020-01-09 00:57:39.276,1.798003897266279,1.195033925366727,0.9310369690263759,0.7591844089707157,0.1916523153763558,0.6992393761299692,0.6148986574254782,0.4334418152719912,0.7685098570399058,0.8292962923851629,0.8411266288207205,0.8547439803259167,0.4322089809312513,0.2614995386477935,0.4472905849897633,0.2306983823116618,0.1177806782344444,-0.2446641436434948,0.1211041888254911,0.185403632296459,715.2014652014652,760.3296703296703,734.5421245421246,704.3223443223443,903.3699633699634,-0.434204,0.076599,0.906433,4.254303,-3.521576,-1.517792,1,1,1,1,1,80.000000
