TimeStamp,Delta_TP9,Delta_AF7,Delta_AF8,Delta_TP10,Theta_TP9,Theta_AF7,Theta_AF8,Theta_TP10,Alpha_TP9,Alpha_AF7,Alpha_AF8,Alpha_TP10,Beta_TP9,Beta_AF7,Beta_AF8,Beta_TP10,Gamma_TP9,Gamma_AF7,Gamma_AF8,Gamma_TP10,RAW_TP9,RAW_AF7,RAW_AF8,RAW_TP10,AUX_RIGHT,Accelerometer_X,Accelerometer_Y,Accelerometer_Z,Gyro_X,Gyro_Y,Gyro_Z,HeadBandOn,HSI_TP9,HSI_AF7,HSI_AF8,HSI_TP10,Battery,Elements
2020-01-09 00:54:51.213,0.9815658029456448,1.560128295352375,0.5585881004364427,1.167996122686231,0.07258009968948229,0.5998802991913665,0.5171389531863867,0.9750984650338531,0.7550060128757089,0.6321549716947275,0.4922441869111913,0.9965686706250139,0.2260194395362515,0.3402271651267186,-0.07183065629225963,0.2464930687865131,-0.0389300076931304,0.6219349215459977,-0.4573409542464253,0.0637426353005608,762.7472527472528,783.2967032967033,816.3369963369963,739.7802197802198,698.2783882783883,-0.473572,0.089600,0.883850,4.687958,-3.551483,-1.794434,1,1,1,1,1,80.000000
2020-01-09 00:54:51.213,0.9815658029456448,1.560128295352375,0.5585881004364427,1.167996122686231,0.07258009968948229,0.5998802991913665,0.5171389531863867,0.9750984650338531,0.7550060128757089,0.6321549716947275,0.4922441869111913,0.9965686706250139,0.2260194395362515,0.3402271651267186,-0.07183065629225963,0.2464930687865131,-0.0389300076931304,0.6219349215459977,-0.4573409542464253,0.0637426353005608,809.4871794871796,788.9377289377289,821.5750915750916,796.5934065934066,1195.494505494506,-0.473572,0.089600,0.883850,4.687958,-3.551483,-1.794434,1,1,1,1,1,80.000000
2020-01-09 00:54:51.214,0.9815658029456448,1.560128295352375,0.5585881004364427,1.167996122686231,0.07258009968948229,0.5998802991913665,0.5171389531863867,0.9750984650338531,0.7550060128757089,0.6321549716947275,0.4922441869111913,0.9965686706250139,0.2260194395362515,0.3402271651267186,-0.07183065629225963,0.2464930687865131,-0.0389300076931304,0.6219349215459977,-0.4573409542464253,0.0637426353005608,792.5641025641025,793.3699633699634,820.7692307692308,772.8205128205128,1125.384615384615,-0.473572,0.089600,0.883850,4.687958,-3.551483,-1.794434,1,1,1,1,1,80.000000
2020-01-09 00:54:51.214,0.9815658029456448,1.560128295352375,0.5585881004364427,1.167996122686231,0.07258009968948229,0.5998802991913665,0.5171389531863867,0.9750984650338531,0.7550060128757089,0.6321549716947275,0.4922441869111913,0.9965686706250139,0.2260194395362515,0.3402271651267186,-0.07183065629225963,0.2464930687865131,-0.0389300076931304,0.6219349215459977,-0.4573409542464253,0.0637426353005608,738.5714285714286,781.6849816849817,813.919413919414,707.5457875457876,618.4981684981685,-0.473572,0.089600,0.883850,4.687958,-3.551483,-1.794434,1,1,1,1,1,80.000000
2020-01-09 00:54:51.214,0.9815658029456448,1.560128295352375,0.5585881004364427,1.167996122686231,0.07258009968948229,0.5998802991913665,0.5171389531863867,0.9750984650338531,0.7550060128757089,0.6321549716947275,0.4922441869111913,0.9965686706250139,0.2260194395362515,0.3402271651267186,-0.07183065629225963,0.2464930687865131,-0.0389300076931304,0.6219349215459977,-0.4573409542464253,0.0637426353005608,752.2710622710623,781.6849816849817,812.7106227106227,721.2454212454213,508.4981684981685,-0.473572,0.089600,0.883850,4.687958,-3.551483,-1.794434,1,1,1,1,1,80.000000
2020-01-09 00:54:51.214,0.9815658029456448,1.560128295352375,0.5585881004364427,1.167996122686231,0.07258009968948229,0.5998802991913665,0.5171389531863867,0.9750984650338531,0.7550060128757089,0.6321549716947275,0.4922441869111913,0.9965686706250139,0.2260194395362515,0.3402271651267186,-0.07183065629225963,0.2464930687865131,-0.0389300076931304,0.6219349215459977,-0.4573409542464253,0.0637426353005608,805.4578754578755,803.040293040293,821.1721611721612,785.3113553113553,828.021978021978,-0.473572,0.089600,0.883850,4.687958,-3.551483,-1.794434,1,1,1,1,1,80.000000
2020-01-09 00:54:51.215,0.9815658029456448,1.560128295352375,0.5585881004364427,1.167996122686231,0.07258009968948229,0.5998802991913665,0.5171389531863867,0.9750984650338531,0.7550060128757089,0.6321549716947275,0.4922441869111913,0.9965686706250139,0.2260194395362515,0.3402271651267186,-0.07183065629225963,0.2464930687865131,-0.0389300076931304,0.6219349215459977,-0.4573409542464253,0.0637426353005608,801.8315018315019,803.040293040293,816.7399267399268,782.0879120879121,1112.490842490843,-0.473572,0.089600,0.883850,4.687958,-3.551483,-1.794434,1,1,1,1,1,80.000000
2020-01-09 00:54:51.215,0.9815658029456448,1.560128295352375,0.5585881004364427,1.167996122686231,0.07258009968948229,0.5998802991913665,0.5171389531863867,0.9750984650338531,0.7550060128757089,0.6321549716947275,0.4922441869111913,0.9965686706250139,0.2260194395362515,0.3402271651267186,-0.07183065629225963,0.2464930687865131,-0.0389300076931304,0.6219349215459977,-0.4573409542464253,0.0637426353005608,748.6446886446887,786.1172161172161,809.8901098901099,714.3956043956044,838.0952380952381,-0.473572,0.089600,0.883850,4.687958,-3.551483,-1.794434,1,1,1,1,1,80.000000
2020-01-09 00:54:51.215,0.9815658029456448,1.560128295352375,0.5585881004364427,1.167996122686231,0.07258009968948229,0.5998802991913665,0.5171389531863867,0.9750984650338531,0.7550060128757089,0.6321549716947275,0.4922441869111913,0.9965686706250139,0.2260194395362515,0.3402271651267186,-0.07183065629225963,0.2464930687865131,-0.0389300076931304,0.6219349215459977,-0.4573409542464253,0.0637426353005608,742.1978021978023,770.8058608058608,811.5018315018315,714.7985347985348,662.4175824175825,-0.473572,0.089600,0.883850,4.687958,-3.551483,-1.794434,1,1,1,1,1,80.000000
2020-01-09 00:54:51.215,0.9815658029456448,1.560128295352375,0.5585881004364427,1.167996122686231,0.07258009968948229,0.5998802991913665,0.5171389531863867,0.9750984650338531,0.7550060128757089,0.6321549716947275,0.4922441869111913,0.9965686706250139,0.2260194395362515,0.3402271651267186,-0.07183065629225963,0.2464930687865131,-0.0389300076931304,0.6219349215459977,-0.4573409542464253,0.0637426353005608,790.5494505494506,786.9230769230769,819.96336996337,781.6849816849817,965.8241758241759,-0.473572,0.089600,0.883850,4.687958,-3.551483,-1.794434,1,1,1,1,1,80.000000
2020-01-09 00:54:51.216,0.9815658029456448,1.560128295352375,0.5585881004364427,1.167996122686231,0.07258009968948229,0.5998802991913665,0.5171389531863867,0.9750984650338531,0.7550060128757089,0.6321549716947275,0.4922441869111913,0.9965686706250139,0.2260194395362515,0.3402271651267186,-0.07183065629225963,0.2464930687865131,-0.0389300076931304,0.6219349215459977,-0.4573409542464253,0.0637426353005608,801.4285714285714,813.5164835164835,826.4102564102565,791.7582417582418,1138.681318681319,-0.473572,0.089600,0.883850,4.687958,-3.551483,-1.794434,1,1,1,1,1,80.000000
2020-01-09 00:54:51.216,0.9815658029456448,1.560128295352375,0.5585881004364427,1.167996122686231,0.07258009968948229,0.5998802991913665,0.5171389531863867,0.9750984650338531,0.7550060128757089,0.6321549716947275,0.4922441869111913,0.9965686706250139,0.2260194395362515,0.3402271651267186,-0.07183065629225963,0.2464930687865131,-0.0389300076931304,0.6219349215459977,-0.4573409542464253,0.0637426353005608,759.92673992674,795.3846153846154,819.5604395604396,736.1538461538462,853.0036630036631,-0.473572,0.089600,0.883850,4.687958,-3.551483,-1.794434,1,1,1,1,1,80.000000
2020-01-09 00:54:51.216,0.9815658029456448,1.560128295352375,0.5585881004364427,1.167996122686231,0.07258009968948229,0.5998802991913665,0.5171389531863867,0.9750984650338531,0.7550060128757089,0.6321549716947275,0.4922441869111913,0.9965686706250139,0.2260194395362515,0.3402271651267186,-0.07183065629225963,0.2464930687865131,-0.0389300076931304,0.6219349215459977,-0.4573409542464253,0.0637426353005608,734.9450549450549,772.8205128205128,815.934065934066,709.9633699633699,521.3919413919414,-0.475098,0.088562,0.885376,4.702911,-3.364563,-1.719666,1,1,1,1,1,80.000000
2020-01-09 00:54:51.216,0.9815658029456448,1.560128295352375,0.5585881004364427,1.167996122686231,0.07258009968948229,0.5998802991913665,0.5171389531863867,0.9750984650338531,0.7550060128757089,0.6321549716947275,0.4922441869111913,0.9965686706250139,0.2260194395362515,0.3402271651267186,-0.07183065629225963,0.2464930687865131,-0.0389300076931304,0.6219349215459977,-0.4573409542464253,0.0637426353005608,774.0293040293041,787.7289377289378,823.1868131868132,757.5091575091575,697.8754578754579,-0.475098,0.088562,0.885376,4.702911,-3.364563,-1.719666,1,1,1,1,1,80.000000
2020-01-09 00:54:51.217,0.9815658029456448,1.560128295352375,0.5585881004364427,1.167996122686231,0.07258009968948229,0.5998802991913665,0.5171389531863867,0.9750984650338531,0.7550060128757089,0.6321549716947275,0.4922441869111913,0.9965686706250139,0.2260194395362515,0.3402271651267186,-0.07183065629225963,0.2464930687865131,-0.0389300076931304,0.6219349215459977,-0.4573409542464253,0.0637426353005608,818.3516483516484,809.4871794871796,825.6043956043957,797.8021978021978,1045.604395604396,-0.475098,0.088562,0.885376,4.702911,-3.364563,-1.719666,1,1,1,1,1,80.000000
2020-01-09 00:54:51.217,0.9815658029456448,1.560128295352375,0.5585881004364427,1.167996122686231,0.07258009968948229,0.5998802991913665,0.5171389531863867,0.9750984650338531,0.7550060128757089,0.6321549716947275,0.4922441869111913,0.9965686706250139,0.2260194395362515,0.3402271651267186,-0.07183065629225963,0.2464930687865131,-0.0389300076931304,0.6219349215459977,-0.4573409542464253,0.0637426353005608,791.3553113553114,798.6080586080586,821.1721611721612,765.5677655677656,885.6410256410256,-0.475098,0.088562,0.885376,4.702911,-3.364563,-1.719666,1,1,1,1,1,80.000000
2020-01-09 00:54:51.217,0.9815658029456448,1.560128295352375,0.5585881004364427,1.167996122686231,0.07258009968948229,0.5998802991913665,0.5171389531863867,0.9750984650338531,0.7550060128757089,0.6321549716947275,0.4922441869111913,0.9965686706250139,0.2260194395362515,0.3402271651267186,-0.07183065629225963,0.2464930687865131,-0.0389300076931304,0.6219349215459977,-0.4573409542464253,0.0637426353005608,743.4065934065934,772.4175824175825,816.3369963369963,719.6336996336996,611.2454212454213,-0.475098,0.088562,0.885376,4.702911,-3.364563,-1.719666,1,1,1,1,1,80.000000
2020-01-09 00:54:51.217,0.9815658029456448,1.560128295352375,0.5585881004364427,1.167996122686231,0.07258009968948229,0.5998802991913665,0.5171389531863867,0.9750984650338531,0.7550060128757089,0.6321549716947275,0.4922441869111913,0.9965686706250139,0.2260194395362515,0.3402271651267186,-0.07183065629225963,0.2464930687865131,-0.0389300076931304,0.6219349215459977,-0.4573409542464253,0.0637426353005608,766.3736263736264,784.1025641025641,819.96336996337,744.2124542124542,755.4945054945055,-0.475098,0.088562,0.885376,4.702911,-3.364563,-1.719666,1,1,1,1,1,80.000000
2020-01-09 00:54:51.218,0.9815658029456448,1.560128295352375,0.5585881004364427,1.167996122686231,0.07258009968948229,0.5998802991913665,0.5171389531863867,0.9750984650338531,0.7550060128757089,0.6321549716947275,0.4922441869111913,0.9965686706250139,0.2260194395362515,0.3402271651267186,-0.07183065629225963,0.2464930687865131,-0.0389300076931304,0.6219349215459977,-0.4573409542464253,0.0637426353005608,813.5164835164835,811.0989010989011,826.007326007326,794.1758241758242,1011.758241758242,-0.475098,0.088562,0.885376,4.702911,-3.364563,-1.719666,1,1,1,1,1,80.000000
2020-01-09 00:54:51.218,0.9815658029456448,1.560128295352375,0.5585881004364427,1.167996122686231,0.07258009968948229,0.5998802991913665,0.5171389531863867,0.9750984650338531,0.7550060128757089,0.6321549716947275,0.4922441869111913,0.9965686706250139,0.2260194395362515,0.3402271651267186,-0.07183065629225963,0.2464930687865131,-0.0389300076931304,0.6219349215459977,-0.4573409542464253,0.0637426353005608,794.1758241758242,803.8461538461539,823.5897435897436,771.6117216117216,998.4615384615385,-0.475098,0.088562,0.885376,4.702911,-3.364563,-1.719666,1,1,1,1,1,80.000000
2020-01-09 00:54:51.218,0.9815658029456448,1.560128295352375,0.5585881004364427,1.167996122686231,0.07258009968948229,0.5998802991913665,0.5171389531863867,0.9750984650338531,0.7550060128757089,0.6321549716947275,0.4922441869111913,0.9965686706250139,0.2260194395362515,0.3402271651267186,-0.07183065629225963,0.2464930687865131,-0.0389300076931304,0.6219349215459977,-0.4573409542464253,0.0637426353005608,750.2564102564103,781.6849816849817,819.5604395604396,712.7838827838829,692.6373626373627,-0.475098,0.088562,0.885376,4.702911,-3.364563,-1.719666,1,1,1,1,1,80.000000
2020-01-09 00:54:51.218,0.9815658029456448,1.560128295352375,0.5585881004364427,1.167996122686231,0.07258009968948229,0.5998802991913665,0.5171389531863867,0.9750984650338531,0.7550060128757089,0.6321549716947275,0.4922441869111913,0.9965686706250139,0.2260194395362515,0.3402271651267186,-0.07183065629225963,0.2464930687865131,-0.0389300076931304,0.6219349215459977,-0.4573409542464253,0.0637426353005608,761.1355311355312,776.8498168498169,817.1428571428571,718.021978021978,558.4615384615385,-0.475098,0.088562,0.885376,4.702911,-3.364563,-1.719666,1,1,1,1,1,80.000000
2020-01-09 00:54:51.219,0.9815658029456448,1.560128295352375,0.5585881004364427,1.167996122686231,0.07258009968948229,0.5998802991913665,0.5171389531863867,0.9750984650338531,0.7550060128757089,0.6321549716947275,0.4922441869111913,0.9965686706250139,0.2260194395362515,0.3402271651267186,-0.07183065629225963,0.2464930687865131,-0.0389300076931304,0.6219349215459977,-0.4573409542464253,0.0637426353005608,803.040293040293,801.4285714285714,821.978021978022,772.4175824175825,860.2564102564103,-0.475098,0.088562,0.885376,4.702911,-3.364563,-1.719666,1,1,1,1,1,80.000000
2020-01-09 00:54:51.219,0.9815658029456448,1.560128295352375,0.5585881004364427,1.167996122686231,0.07258009968948229,0.5998802991913665,0.5171389531863867,0.9750984650338531,0.7550060128757089,0.6321549716947275,0.4922441869111913,0.9965686706250139,0.2260194395362515,0.3402271651267186,-0.07183065629225963,0.2464930687865131,-0.0389300076931304,0.6219349215459977,-0.4573409542464253,0.0637426353005608,800.2197802197802,811.9047619047619,823.992673992674,784.5054945054945,1161.648351648352,-0.475098,0.088562,0.885376,4.702911,-3.364563,-1.719666,1,1,1,1,1,80.000000
2020-01-09 00:54:51.219,0.9815658029456448,1.560128295352375,0.5585881004364427,1.167996122686231,0.07258009968948229,0.5998802991913665,0.5171389531863867,0.9750984650338531,0.7550060128757089,0.6321549716947275,0.4922441869111913,0.9965686706250139,0.2260194395362515,0.3402271651267186,-0.07183065629225963,0.2464930687865131,-0.0389300076931304,0.6219349215459977,-0.4573409542464253,0.0637426353005608,747.032967032967,779.2673992673992,815.934065934066,738.974358974359,1068.571428571429,-0.475464,0.087463,0.885742,4.187012,-3.319702,-1.614990,1,1,1,1,1,80.000000
2020-01-09 00:54:51.219,0.9815658029456448,1.650892954611279,0.5428147680455181,0.8715294185719246,0.07258009968948229,0.6988937651607774,0.4768766570009873,0.602196817972289,0.7550060128757089,0.6498570108178719,0.4922441869111913,0.3754437639527831,0.2260194395362515,0.3496008712536811,-0.09317929320126778,0.214764653154305,-0.0389300076931304,0.6166914941209682,-0.4759756041711971,0.09042460643973117,737.7655677655678,777.6556776556777,817.5457875457876,719.6336996336996,701.9047619047619,-0.475464,0.087463,0.885742,4.187012,-3.319702,-1.614990,1,1,1,1,1,80.000000
2020-01-09 00:54:51.221,0.9815658029456448,1.650892954611279,0.5428147680455181,0.8715294185719246,0.07258009968948229,0.6988937651607774,0.4768766570009873,0.602196817972289,0.7550060128757089,0.6498570108178719,0.4922441869111913,0.3754437639527831,0.2260194395362515,0.3496008712536811,-0.09317929320126778,0.214764653154305,-0.0389300076931304,0.6166914941209682,-0.4759756041711971,0.09042460643973117,792.967032967033,810.2930402930403,826.007326007326,767.1794871794872,765.1648351648352,-0.475464,0.087463,0.885742,4.187012,-3.319702,-1.614990,1,1,1,1,1,80.000000
2020-01-09 00:54:51.221,0.9815658029456448,1.650892954611279,0.5428147680455181,0.8715294185719246,0.07258009968948229,0.6988937651607774,0.4768766570009873,0.602196817972289,0.7550060128757089,0.6498570108178719,0.4922441869111913,0.3754437639527831,0.2260194395362515,0.3496008712536811,-0.09317929320126778,0.214764653154305,-0.0389300076931304,0.6166914941209682,-0.4759756041711971,0.09042460643973117,820.7692307692308,823.1868131868132,832.0512820512821,800.2197802197802,1091.135531135531,-0.475464,0.087463,0.885742,4.187012,-3.319702,-1.614990,1,1,1,1,1,80.000000
2020-01-09 00:54:51.221,0.9815658029456448,1.650892954611279,0.5428147680455181,0.8715294185719246,0.07258009968948229,0.6988937651607774,0.4768766570009873,0.602196817972289,0.7550060128757089,0.6498570108178719,0.4922441869111913,0.3754437639527831,0.2260194395362515,0.3496008712536811,-0.09317929320126778,0.214764653154305,-0.0389300076931304,0.6166914941209682,-0.4759756041711971,0.09042460643973117,778.8644688644689,797.8021978021978,826.8131868131868,755.8974358974359,890.0732600732601,-0.475464,0.087463,0.885742,4.187012,-3.319702,-1.614990,1,1,1,1,1,80.000000
2020-01-09 00:54:51.222,0.9815658029456448,1.650892954611279,0.5428147680455181,0.8715294185719246,0.07258009968948229,0.6988937651607774,0.4768766570009873,0.602196817972289,0.7550060128757089,0.6498570108178719,0.4922441869111913,0.3754437639527831,0.2260194395362515,0.3496008712536811,-0.09317929320126778,0.214764653154305,-0.0389300076931304,0.6166914941209682,-0.4759756041711971,0.09042460643973117,745.0183150183151,776.4468864468864,821.1721611721612,723.6630036630037,624.1391941391942,-0.475464,0.087463,0.885742,4.187012,-3.319702,-1.614990,1,1,1,1,1,80.000000
2020-01-09 00:54:51.222,0.9815658029456448,1.650892954611279,0.5428147680455181,0.8715294185719246,0.07258009968948229,0.6988937651607774,0.4768766570009873,0.602196817972289,0.7550060128757089,0.6498570108178719,0.4922441869111913,0.3754437639527831,0.2260194395362515,0.3496008712536811,-0.09317929320126778,0.214764653154305,-0.0389300076931304,0.6166914941209682,-0.4759756041711971,0.09042460643973117,776.4468864468864,794.981684981685,828.021978021978,758.3150183150184,755.4945054945055,-0.475464,0.087463,0.885742,4.187012,-3.319702,-1.614990,1,1,1,1,1,80.000000
2020-01-09 00:54:51.222,0.9815658029456448,1.650892954611279,0.5428147680455181,0.8715294185719246,0.07258009968948229,0.6988937651607774,0.4768766570009873,0.602196817972289,0.7550060128757089,0.6498570108178719,0.4922441869111913,0.3754437639527831,0.2260194395362515,0.3496008712536811,-0.09317929320126778,0.214764653154305,-0.0389300076931304,0.6166914941209682,-0.4759756041711971,0.09042460643973117,817.5457875457876,807.0695970695971,830.0366300366301,806.6666666666667,1103.626373626374,-0.475464,0.087463,0.885742,4.187012,-3.319702,-1.614990,1,1,1,1,1,80.000000
2020-01-09 00:54:51.222,0.9815658029456448,1.650892954611279,0.5428147680455181,0.8715294185719246,0.07258009968948229,0.6988937651607774,0.4768766570009873,0.602196817972289,0.7550060128757089,0.6498570108178719,0.4922441869111913,0.3754437639527831,0.2260194395362515,0.3496008712536811,-0.09317929320126778,0.214764653154305,-0.0389300076931304,0.6166914941209682,-0.4759756041711971,0.09042460643973117,788.5347985347986,796.996336996337,824.7985347985348,778.0586080586081,1197.912087912088,-0.475464,0.087463,0.885742,4.187012,-3.319702,-1.614990,1,1,1,1,1,80.000000
2020-01-09 00:54:51.222,0.9815658029456448,1.650892954611279,0.5428147680455181,0.8715294185719246,0.07258009968948229,0.6988937651607774,0.4768766570009873,0.602196817972289,0.7550060128757089,0.6498570108178719,0.4922441869111913,0.3754437639527831,0.2260194395362515,0.3496008712536811,-0.09317929320126778,0.214764653154305,-0.0389300076931304,0.6166914941209682,-0.4759756041711971,0.09042460643973117,732.1245421245421,792.5641025641025,823.5897435897436,714.7985347985348,781.6849816849817,-0.475464,0.087463,0.885742,4.187012,-3.319702,-1.614990,1,1,1,1,1,80.000000
2020-01-09 00:54:51.223,0.9815658029456448,1.650892954611279,0.5428147680455181,0.8715294185719246,0.07258009968948229,0.6988937651607774,0.4768766570009873,0.602196817972289,0.7550060128757089,0.6498570108178719,0.4922441869111913,0.3754437639527831,0.2260194395362515,0.3496008712536811,-0.09317929320126778,0.214764653154305,-0.0389300076931304,0.6166914941209682,-0.4759756041711971,0.09042460643973117,757.1062271062272,795.7875457875458,829.6336996336996,744.2124542124542,593.919413919414,-0.475464,0.087463,0.885742,4.187012,-3.319702,-1.614990,1,1,1,1,1,80.000000
2020-01-09 00:54:51.223,0.9815658029456448,1.650892954611279,0.5428147680455181,0.8715294185719246,0.07258009968948229,0.6988937651607774,0.4768766570009873,0.602196817972289,0.7550060128757089,0.6498570108178719,0.4922441869111913,0.3754437639527831,0.2260194395362515,0.3496008712536811,-0.09317929320126778,0.214764653154305,-0.0389300076931304,0.6166914941209682,-0.4759756041711971,0.09042460643973117,807.4725274725275,809.8901098901099,833.2600732600733,803.040293040293,958.1684981684982,-0.475464,0.087463,0.885742,4.187012,-3.319702,-1.614990,1,1,1,1,1,80.000000
2020-01-09 00:54:51.223,0.9815658029456448,1.650892954611279,0.5428147680455181,0.8715294185719246,0.07258009968948229,0.6988937651607774,0.4768766570009873,0.602196817972289,0.7550060128757089,0.6498570108178719,0.4922441869111913,0.3754437639527831,0.2260194395362515,0.3496008712536811,-0.09317929320126778,0.214764653154305,-0.0389300076931304,0.6166914941209682,-0.4759756041711971,0.09042460643973117,788.5347985347986,811.0989010989011,828.021978021978,790.1465201465202,1137.472527472527,-0.475464,0.087463,0.885742,4.187012,-3.319702,-1.614990,1,1,1,1,1,80.000000
2020-01-09 00:54:51.223,0.9815658029456448,1.650892954611279,0.5428147680455181,0.8715294185719246,0.07258009968948229,0.6988937651607774,0.4768766570009873,0.602196817972289,0.7550060128757089,0.6498570108178719,0.4922441869111913,0.3754437639527831,0.2260194395362515,0.3496008712536811,-0.09317929320126778,0.214764653154305,-0.0389300076931304,0.6166914941209682,-0.4759756041711971,0.09042460643973117,734.5421245421246,790.5494505494506,819.96336996337,737.3626373626374,775.6410256410256,-0.475464,0.087463,0.885742,4.187012,-3.319702,-1.614990,1,1,1,1,1,80.000000
2020-01-09 00:54:51.224,0.9815658029456448,1.650892954611279,0.5428147680455181,0.8715294185719246,0.07258009968948229,0.6988937651607774,0.4768766570009873,0.602196817972289,0.7550060128757089,0.6498570108178719,0.4922441869111913,0.3754437639527831,0.2260194395362515,0.3496008712536811,-0.09317929320126778,0.214764653154305,-0.0389300076931304,0.6166914941209682,-0.4759756041711971,0.09042460643973117,739.7802197802198,787.7289377289378,817.948717948718,736.959706959707,495.6043956043956,-0.475464,0.087463,0.885742,4.187012,-3.319702,-1.614990,1,1,1,1,1,80.000000
2020-01-09 00:54:51.224,0.9815658029456448,1.650892954611279,0.5428147680455181,0.8715294185719246,0.07258009968948229,0.6988937651607774,0.4768766570009873,0.602196817972289,0.7550060128757089,0.6498570108178719,0.4922441869111913,0.3754437639527831,0.2260194395362515,0.3496008712536811,-0.09317929320126778,0.214764653154305,-0.0389300076931304,0.6166914941209682,-0.4759756041711971,0.09042460643973117,791.7582417582418,796.996336996337,822.7838827838829,800.6227106227107,882.8205128205128,-0.475464,0.087463,0.885742,4.187012,-3.319702,-1.614990,1,1,1,1,1,80.000000
2020-01-09 00:54:51.224,0.9815658029456448,1.650892954611279,0.5428147680455181,0.8715294185719246,0.07258009968948229,0.6988937651607774,0.4768766570009873,0.602196817972289,0.7550060128757089,0.6498570108178719,0.4922441869111913,0.3754437639527831,0.2260194395362515,0.3496008712536811,-0.09317929320126778,0.214764653154305,-0.0389300076931304,0.6166914941209682,-0.4759756041711971,0.09042460643973117,793.7728937728938,804.6520146520147,826.007326007326,812.3076923076924,1060.512820512821,-0.475464,0.087463,0.885742,4.187012,-3.319702,-1.614990,1,1,1,1,1,80.000000
2020-01-09 00:54:51.224,0.9815658029456448,1.650892954611279,0.5428147680455181,0.8715294185719246,0.07258009968948229,0.6988937651607774,0.4768766570009873,0.602196817972289,0.7550060128757089,0.6498570108178719,0.4922441869111913,0.3754437639527831,0.2260194395362515,0.3496008712536811,-0.09317929320126778,0.214764653154305,-0.0389300076931304,0.6166914941209682,-0.4759756041711971,0.09042460643973117,739.3772893772893,790.5494505494506,821.1721611721612,750.2564102564103,703.5164835164835,-0.475464,0.087463,0.885742,4.187012,-3.319702,-1.614990,1,1,1,1,1,80.000000
2020-01-09 00:54:51.225,0.9815658029456448,1.650892954611279,0.5428147680455181,0.8715294185719246,0.07258009968948229,0.6988937651607774,0.4768766570009873,0.602196817972289,0.7550060128757089,0.6498570108178719,0.4922441869111913,0.3754437639527831,0.2260194395362515,0.3496008712536811,-0.09317929320126778,0.214764653154305,-0.0389300076931304,0.6166914941209682,-0.4759756041711971,0.09042460643973117,715.2014652014652,774.4322344322345,815.934065934066,729.7069597069598,525.8241758241759,-0.475464,0.087463,0.885742,4.187012,-3.319702,-1.614990,1,1,1,1,1,80.000000
2020-01-09 00:54:51.225,0.9815658029456448,1.650892954611279,0.5428147680455181,0.8715294185719246,0.07258009968948229,0.6988937651607774,0.4768766570009873,0.602196817972289,0.7550060128757089,0.6498570108178719,0.4922441869111913,0.3754437639527831,0.2260194395362515,0.3496008712536811,-0.09317929320126778,0.214764653154305,-0.0389300076931304,0.6166914941209682,-0.4759756041711971,0.09042460643973117,763.956043956044,799.0109890109891,825.6043956043957,782.893772893773,705.934065934066,-0.475464,0.087463,0.885742,4.187012,-3.319702,-1.614990,1,1,1,1,1,80.000000
2020-01-09 00:54:51.225,0.9815658029456448,1.650892954611279,0.5428147680455181,0.8715294185719246,0.07258009968948229,0.6988937651607774,0.4768766570009873,0.602196817972289,0.7550060128757089,0.6498570108178719,0.4922441869111913,0.3754437639527831,0.2260194395362515,0.3496008712536811,-0.09317929320126778,0.214764653154305,-0.0389300076931304,0.6166914941209682,-0.4759756041711971,0.09042460643973117,799.0109890109891,821.1721611721612,829.2307692307693,812.3076923076924,1013.772893772894,-0.475464,0.087463,0.885742,4.187012,-3.319702,-1.614990,1,1,1,1,1,80.000000
2020-01-09 00:54:51.225,0.9815658029456448,1.650892954611279,0.5428147680455181,0.8715294185719246,0.07258009968948229,0.6988937651607774,0.4768766570009873,0.602196817972289,0.7550060128757089,0.6498570108178719,0.4922441869111913,0.3754437639527831,0.2260194395362515,0.3496008712536811,-0.09317929320126778,0.214764653154305,-0.0389300076931304,0.6166914941209682,-0.4759756041711971,0.09042460643973117,753.4798534798535,807.8754578754579,821.5750915750916,761.941391941392,958.974358974359,-0.475464,0.087463,0.885742,4.187012,-3.319702,-1.614990,1,1,1,1,1,80.000000
2020-01-09 00:54:51.226,0.9815658029456448,1.650892954611279,0.5428147680455181,0.8715294185719246,0.07258009968948229,0.6988937651607774,0.4768766570009873,0.602196817972289,0.7550060128757089,0.6498570108178719,0.4922441869111913,0.3754437639527831,0.2260194395362515,0.3496008712536811,-0.09317929320126778,0.214764653154305,-0.0389300076931304,0.6166914941209682,-0.4759756041711971,0.09042460643973117,722.4542124542124,786.5201465201466,818.7545787545788,723.2600732600732,625.3479853479854,-0.475464,0.087463,0.885742,4.187012,-3.319702,-1.614990,1,1,1,1,1,80.000000
2020-01-09 00:54:51.226,0.9815658029456448,1.650892954611279,0.5428147680455181,0.8715294185719246,0.07258009968948229,0.6988937651607774,0.4768766570009873,0.602196817972289,0.7550060128757089,0.6498570108178719,0.4922441869111913,0.3754437639527831,0.2260194395362515,0.3496008712536811,-0.09317929320126778,0.214764653154305,-0.0389300076931304,0.6166914941209682,-0.4759756041711971,0.09042460643973117,766.3736263736264,785.3113553113553,821.978021978022,762.7472527472528,826.007326007326,-0.475464,0.087463,0.885742,4.187012,-3.319702,-1.614990,1,1,1,1,1,80.000000
2020-01-09 00:54:51.226,0.9815658029456448,1.650892954611279,0.5428147680455181,0.8715294185719246,0.07258009968948229,0.6988937651607774,0.4768766570009873,0.602196817972289,0.7550060128757089,0.6498570108178719,0.4922441869111913,0.3754437639527831,0.2260194395362515,0.3496008712536811,-0.09317929320126778,0.214764653154305,-0.0389300076931304,0.6166914941209682,-0.4759756041711971,0.09042460643973117,813.5164835164835,817.1428571428571,827.6190476190476,805.4578754578755,1191.465201465202,-0.478882,0.089539,0.888916,4.598236,-2.788849,-1.757050,1,1,1,1,1,80.000000
2020-01-09 00:54:51.226,0.9815658029456448,1.650892954611279,0.5428147680455181,0.8715294185719246,0.07258009968948229,0.6988937651607774,0.4768766570009873,0.602196817972289,0.7550060128757089,0.6498570108178719,0.4922441869111913,0.3754437639527831,0.2260194395362515,0.3496008712536811,-0.09317929320126778,0.214764653154305,-0.0389300076931304,0.6166914941209682,-0.4759756041711971,0.09042460643973117,787.7289377289378,830.4395604395604,826.8131868131868,772.4175824175825,1006.117216117216,-0.478882,0.089539,0.888916,4.598236,-2.788849,-1.757050,1,1,1,1,1,80.000000
2020-01-09 00:54:51.227,0.9815658029456448,1.650892954611279,0.5428147680455181,0.8715294185719246,0.07258009968948229,0.6988937651607774,0.4768766570009873,0.602196817972289,0.7550060128757089,0.6498570108178719,0.4922441869111913,0.3754437639527831,0.2260194395362515,0.3496008712536811,-0.09317929320126778,0.214764653154305,-0.0389300076931304,0.6166914941209682,-0.4759756041711971,0.09042460643973117,738.1684981684982,804.6520146520147,821.1721611721612,718.4249084249085,680.1465201465202,-0.478882,0.089539,0.888916,4.598236,-2.788849,-1.757050,1,1,1,1,1,80.000000
2020-01-09 00:54:51.227,0.9815658029456448,1.709555111884203,0.5095980925695383,0.8715294185719246,0.07258009968948229,0.7787223142819901,0.3969669489363948,0.602196817972289,0.7550060128757089,0.6498570108178719,0.471192521275942,0.3754437639527831,0.2260194395362515,0.3464179175272897,-0.1214078197855169,0.214764653154305,-0.0389300076931304,0.6132977975432066,-0.4805628382267944,0.09042460643973117,757.9120879120879,804.6520146520147,819.5604395604396,735.7509157509157,589.0842490842491,-0.478882,0.089539,0.888916,4.598236,-2.788849,-1.757050,1,1,1,1,1,80.000000
2020-01-09 00:54:51.228,0.9815658029456448,1.709555111884203,0.5095980925695383,0.8715294185719246,0.07258009968948229,0.7787223142819901,0.3969669489363948,0.602196817972289,0.7550060128757089,0.6498570108178719,0.471192521275942,0.3754437639527831,0.2260194395362515,0.3464179175272897,-0.1214078197855169,0.214764653154305,-0.0389300076931304,0.6132977975432066,-0.4805628382267944,0.09042460643973117,813.919413919414,825.6043956043957,823.992673992674,789.3406593406594,897.3260073260074,-0.478882,0.089539,0.888916,4.598236,-2.788849,-1.757050,1,1,1,1,1,80.000000
2020-01-09 00:54:51.229,0.9815658029456448,1.709555111884203,0.5095980925695383,0.8715294185719246,0.07258009968948229,0.7787223142819901,0.3969669489363948,0.602196817972289,0.7550060128757089,0.6498570108178719,0.471192521275942,0.3754437639527831,0.2260194395362515,0.3464179175272897,-0.1214078197855169,0.214764653154305,-0.0389300076931304,0.6132977975432066,-0.4805628382267944,0.09042460643973117,807.4725274725275,826.8131868131868,823.992673992674,785.3113553113553,1050.03663003663,-0.478882,0.089539,0.888916,4.598236,-2.788849,-1.757050,1,1,1,1,1,80.000000
2020-01-09 00:54:51.229,0.9815658029456448,1.709555111884203,0.5095980925695383,0.8715294185719246,0.07258009968948229,0.7787223142819901,0.3969669489363948,0.602196817972289,0.7550060128757089,0.6498570108178719,0.471192521275942,0.3754437639527831,0.2260194395362515,0.3464179175272897,-0.1214078197855169,0.214764653154305,-0.0389300076931304,0.6132977975432066,-0.4805628382267944,0.09042460643973117,753.4798534798535,793.3699633699634,812.7106227106227,730.5128205128206,781.6849816849817,-0.478882,0.089539,0.888916,4.598236,-2.788849,-1.757050,1,1,1,1,1,80.000000
2020-01-09 00:54:51.229,0.9815658029456448,1.709555111884203,0.5095980925695383,0.8715294185719246,0.07258009968948229,0.7787223142819901,0.3969669489363948,0.602196817972289,0.7550060128757089,0.6498570108178719,0.471192521275942,0.3754437639527831,0.2260194395362515,0.3464179175272897,-0.1214078197855169,0.214764653154305,-0.0389300076931304,0.6132977975432066,-0.4805628382267944,0.09042460643973117,740.5860805860806,778.8644688644689,811.5018315018315,724.0659340659341,714.7985347985348,-0.478882,0.089539,0.888916,4.598236,-2.788849,-1.757050,1,1,1,1,1,80.000000
2020-01-09 00:54:51.229,0.9815658029456448,1.709555111884203,0.5095980925695383,0.8715294185719246,0.07258009968948229,0.7787223142819901,0.3969669489363948,0.602196817972289,0.7550060128757089,0.6498570108178719,0.471192521275942,0.3754437639527831,0.2260194395362515,0.3464179175272897,-0.1214078197855169,0.214764653154305,-0.0389300076931304,0.6132977975432066,-0.4805628382267944,0.09042460643973117,786.9230769230769,823.1868131868132,829.6336996336996,782.893772893773,966.2271062271062,-0.478882,0.089539,0.888916,4.598236,-2.788849,-1.757050,1,1,1,1,1,80.000000
2020-01-09 00:54:51.230,0.9815658029456448,1.709555111884203,0.5095980925695383,0.8715294185719246,0.07258009968948229,0.7787223142819901,0.3969669489363948,0.602196817972289,0.7550060128757089,0.6498570108178719,0.471192521275942,0.3754437639527831,0.2260194395362515,0.3464179175272897,-0.1214078197855169,0.214764653154305,-0.0389300076931304,0.6132977975432066,-0.4805628382267944,0.09042460643973117,815.5311355311355,838.0952380952381,832.4542124542124,805.0549450549451,1128.205128205128,-0.478882,0.089539,0.888916,4.598236,-2.788849,-1.757050,1,1,1,1,1,80.000000
2020-01-09 00:54:51.230,0.9815658029456448,1.709555111884203,0.5095980925695383,0.8715294185719246,0.07258009968948229,0.7787223142819901,0.3969669489363948,0.602196817972289,0.7550060128757089,0.6498570108178719,0.471192521275942,0.3754437639527831,0.2260194395362515,0.3464179175272897,-0.1214078197855169,0.214764653154305,-0.0389300076931304,0.6132977975432066,-0.4805628382267944,0.09042460643973117,768.3882783882784,809.8901098901099,819.96336996337,746.2271062271062,790.1465201465202,-0.478882,0.089539,0.888916,4.598236,-2.788849,-1.757050,1,1,1,1,1,80.000000
2020-01-09 00:54:51.230,0.9815658029456448,1.709555111884203,0.5095980925695383,0.8715294185719246,0.07258009968948229,0.7787223142819901,0.3969669489363948,0.602196817972289,0.7550060128757089,0.6498570108178719,0.471192521275942,0.3754437639527831,0.2260194395362515,0.3464179175272897,-0.1214078197855169,0.214764653154305,-0.0389300076931304,0.6132977975432066,-0.4805628382267944,0.09042460643973117,730.5128205128206,795.7875457875458,815.1282051282052,713.1868131868132,505.2747252747253,-0.478882,0.089539,0.888916,4.598236,-2.788849,-1.757050,1,1,1,1,1,80.000000
2020-01-09 00:54:51.230,0.9815658029456448,1.709555111884203,0.5095980925695383,0.8715294185719246,0.07258009968948229,0.7787223142819901,0.3969669489363948,0.602196817972289,0.7550060128757089,0.6498570108178719,0.471192521275942,0.3754437639527831,0.2260194395362515,0.3464179175272897,-0.1214078197855169,0.214764653154305,-0.0389300076931304,0.6132977975432066,-0.4805628382267944,0.09042460643973117,770,816.3369963369963,824.3956043956044,765.5677655677656,723.2600732600732,-0.474365,0.088440,0.884949,4.785156,-3.521576,-1.689758,1,1,1,1,1,80.000000
2020-01-09 00:54:51.231,0.9815658029456448,1.709555111884203,0.5095980925695383,0.8715294185719246,0.07258009968948229,0.7787223142819901,0.3969669489363948,0.602196817972289,0.7550060128757089,0.6498570108178719,0.471192521275942,0.3754437639527831,0.2260194395362515,0.3464179175272897,-0.1214078197855169,0.214764653154305,-0.0389300076931304,0.6132977975432066,-0.4805628382267944,0.09042460643973117,806.2637362637363,836.4835164835165,831.2454212454213,810.6959706959707,1021.428571428571,-0.474365,0.088440,0.884949,4.785156,-3.521576,-1.689758,1,1,1,1,1,80.000000
2020-01-09 00:54:51.231,0.9815658029456448,1.709555111884203,0.5095980925695383,0.8715294185719246,0.07258009968948229,0.7787223142819901,0.3969669489363948,0.602196817972289,0.7550060128757089,0.6498570108178719,0.471192521275942,0.3754437639527831,0.2260194395362515,0.3464179175272897,-0.1214078197855169,0.214764653154305,-0.0389300076931304,0.6132977975432066,-0.4805628382267944,0.09042460643973117,768.3882783882784,818.7545787545788,820.7692307692308,766.7765567765568,973.8827838827839,-0.474365,0.088440,0.884949,4.785156,-3.521576,-1.689758,1,1,1,1,1,80.000000
2020-01-09 00:54:51.231,0.9815658029456448,1.709555111884203,0.5095980925695383,0.8715294185719246,0.07258009968948229,0.7787223142819901,0.3969669489363948,0.602196817972289,0.7550060128757089,0.6498570108178719,0.471192521275942,0.3754437639527831,0.2260194395362515,0.3464179175272897,-0.1214078197855169,0.214764653154305,-0.0389300076931304,0.6132977975432066,-0.4805628382267944,0.09042460643973117,728.901098901099,801.025641025641,814.3223443223443,718.4249084249085,632.1978021978022,-0.474365,0.088440,0.884949,4.785156,-3.521576,-1.689758,1,1,1,1,1,80.000000
2020-01-09 00:54:51.231,0.9815658029456448,1.709555111884203,0.5095980925695383,0.8715294185719246,0.07258009968948229,0.7787223142819901,0.3969669489363948,0.602196817972289,0.7550060128757089,0.6498570108178719,0.471192521275942,0.3754437639527831,0.2260194395362515,0.3464179175272897,-0.1214078197855169,0.214764653154305,-0.0389300076931304,0.6132977975432066,-0.4805628382267944,0.09042460643973117,760.7326007326008,807.0695970695971,823.5897435897436,757.1062271062272,648.7179487179487,-0.474365,0.088440,0.884949,4.785156,-3.521576,-1.689758,1,1,1,1,1,80.000000
2020-01-09 00:54:51.232,0.9815658029456448,1.709555111884203,0.5095980925695383,0.8715294185719246,0.07258009968948229,0.7787223142819901,0.3969669489363948,0.602196817972289,0.7550060128757089,0.6498570108178719,0.471192521275942,0.3754437639527831,0.2260194395362515,0.3464179175272897,-0.1214078197855169,0.214764653154305,-0.0389300076931304,0.6132977975432066,-0.4805628382267944,0.09042460643973117,807.8754578754579,822.3809523809524,831.6483516483516,809.0842490842491,1061.721611721612,-0.474365,0.088440,0.884949,4.785156,-3.521576,-1.689758,1,1,1,1,1,80.000000
2020-01-09 00:54:51.232,0.9815658029456448,1.709555111884203,0.5095980925695383,0.8715294185719246,0.07258009968948229,0.7787223142819901,0.3969669489363948,0.602196817972289,0.7550060128757089,0.6498570108178719,0.471192521275942,0.3754437639527831,0.2260194395362515,0.3464179175272897,-0.1214078197855169,0.214764653154305,-0.0389300076931304,0.6132977975432066,-0.4805628382267944,0.09042460643973117,783.2967032967033,822.3809523809524,825.6043956043957,783.2967032967033,1119.340659340659,-0.474365,0.088440,0.884949,4.785156,-3.521576,-1.689758,1,1,1,1,1,80.000000
2020-01-09 00:54:51.232,0.9815658029456448,1.709555111884203,0.5095980925695383,0.8715294185719246,0.07258009968948229,0.7787223142819901,0.3969669489363948,0.602196817972289,0.7550060128757089,0.6498570108178719,0.471192521275942,0.3754437639527831,0.2260194395362515,0.3464179175272897,-0.1214078197855169,0.214764653154305,-0.0389300076931304,0.6132977975432066,-0.4805628382267944,0.09042460643973117,720.8424908424909,804.2490842490843,818.7545787545788,718.8278388278388,767.1794871794872,-0.474365,0.088440,0.884949,4.785156,-3.521576,-1.689758,1,1,1,1,1,80.000000
2020-01-09 00:54:51.232,0.9815658029456448,1.709555111884203,0.5095980925695383,0.8715294185719246,0.07258009968948229,0.7787223142819901,0.3969669489363948,0.602196817972289,0.7550060128757089,0.6498570108178719,0.471192521275942,0.3754437639527831,0.2260194395362515,0.3464179175272897,-0.1214078197855169,0.214764653154305,-0.0389300076931304,0.6132977975432066,-0.4805628382267944,0.09042460643973117,732.9304029304029,802.2344322344322,819.96336996337,728.0952380952381,585.0549450549451,-0.474365,0.088440,0.884949,4.785156,-3.521576,-1.689758,1,1,1,1,1,80.000000
2020-01-09 00:54:51.232,0.9815658029456448,1.709555111884203,0.5095980925695383,0.8715294185719246,0.07258009968948229,0.7787223142819901,0.3969669489363948,0.602196817972289,0.7550060128757089,0.6498570108178719,0.471192521275942,0.3754437639527831,0.2260194395362515,0.3464179175272897,-0.1214078197855169,0.214764653154305,-0.0389300076931304,0.6132977975432066,-0.4805628382267944,0.09042460643973117,795.3846153846154,825.6043956043957,829.6336996336996,789.7435897435897,790.952380952381,-0.474365,0.088440,0.884949,4.785156,-3.521576,-1.689758,1,1,1,1,1,80.000000
2020-01-09 00:54:51.233,0.9815658029456448,1.709555111884203,0.5095980925695383,0.8715294185719246,0.07258009968948229,0.7787223142819901,0.3969669489363948,0.602196817972289,0.7550060128757089,0.6498570108178719,0.471192521275942,0.3754437639527831,0.2260194395362515,0.3464179175272897,-0.1214078197855169,0.214764653154305,-0.0389300076931304,0.6132977975432066,-0.4805628382267944,0.09042460643973117,800.2197802197802,819.96336996337,830.0366300366301,799.8168498168499,1284.139194139194,-0.474365,0.088440,0.884949,4.785156,-3.521576,-1.689758,1,1,1,1,1,80.000000
2020-01-09 00:54:51.233,0.9815658029456448,1.709555111884203,0.5095980925695383,0.8715294185719246,0.07258009968948229,0.7787223142819901,0.3969669489363948,0.602196817972289,0.7550060128757089,0.6498570108178719,0.471192521275942,0.3754437639527831,0.2260194395362515,0.3464179175272897,-0.1214078197855169,0.214764653154305,-0.0389300076931304,0.6132977975432066,-0.4805628382267944,0.09042460643973117,732.5274725274726,797.8021978021978,818.3516483516484,736.959706959707,1100.805860805861,-0.474365,0.088440,0.884949,4.785156,-3.521576,-1.689758,1,1,1,1,1,80.000000
2020-01-09 00:54:51.233,0.9815658029456448,1.709555111884203,0.5095980925695383,0.8715294185719246,0.07258009968948229,0.7787223142819901,0.3969669489363948,0.602196817972289,0.7550060128757089,0.6498570108178719,0.471192521275942,0.3754437639527831,0.2260194395362515,0.3464179175272897,-0.1214078197855169,0.214764653154305,-0.0389300076931304,0.6132977975432066,-0.4805628382267944,0.09042460643973117,720.0366300366301,807.0695970695971,819.1575091575091,713.5897435897436,526.6300366300367,-0.476013,0.087402,0.891602,5.009460,-3.469238,-1.629944,1,1,1,1,1,80.000000
2020-01-09 00:54:51.233,0.9815658029456448,1.709555111884203,0.5095980925695383,0.8715294185719246,0.07258009968948229,0.7787223142819901,0.3969669489363948,0.602196817972289,0.7550060128757089,0.6498570108178719,0.471192521275942,0.3754437639527831,0.2260194395362515,0.3464179175272897,-0.1214078197855169,0.214764653154305,-0.0389300076931304,0.6132977975432066,-0.4805628382267944,0.09042460643973117,780.0732600732601,823.992673992674,826.8131868131868,772.8205128205128,701.9047619047619,-0.476013,0.087402,0.891602,5.009460,-3.469238,-1.629944,1,1,1,1,1,80.000000
2020-01-09 00:54:51.233,0.9815658029456448,1.709555111884203,0.5095980925695383,0.8715294185719246,0.07258009968948229,0.7787223142819901,0.3969669489363948,0.602196817972289,0.7550060128757089,0.6498570108178719,0.471192521275942,0.3754437639527831,0.2260194395362515,0.3464179175272897,-0.1214078197855169,0.214764653154305,-0.0389300076931304,0.6132977975432066,-0.4805628382267944,0.09042460643973117,805.8608058608058,826.007326007326,830.0366300366301,801.8315018315019,1001.684981684982,-0.476013,0.087402,0.891602,5.009460,-3.469238,-1.629944,1,1,1,1,1,80.000000
2020-01-09 00:54:51.233,0.9815658029456448,1.709555111884203,0.5095980925695383,0.8715294185719246,0.07258009968948229,0.7787223142819901,0.3969669489363948,0.602196817972289,0.7550060128757089,0.6498570108178719,0.471192521275942,0.3754437639527831,0.2260194395362515,0.3464179175272897,-0.1214078197855169,0.214764653154305,-0.0389300076931304,0.6132977975432066,-0.4805628382267944,0.09042460643973117,760.3296703296703,807.0695970695971,819.96336996337,755.8974358974359,832.4542124542124,-0.476013,0.087402,0.891602,5.009460,-3.469238,-1.629944,1,1,1,1,1,80.000000
2020-01-09 00:54:51.234,0.9815658029456448,1.709555111884203,0.5095980925695383,0.8715294185719246,0.07258009968948229,0.7787223142819901,0.3969669489363948,0.602196817972289,0.7550060128757089,0.6498570108178719,0.471192521275942,0.3754437639527831,0.2260194395362515,0.3464179175272897,-0.1214078197855169,0.214764653154305,-0.0389300076931304,0.6132977975432066,-0.4805628382267944,0.09042460643973117,725.6776556776557,796.996336996337,813.5164835164835,722.8571428571429,516.959706959707,-0.476013,0.087402,0.891602,5.009460,-3.469238,-1.629944,1,1,1,1,1,80.000000
2020-01-09 00:54:51.234,0.9815658029456448,1.730982363893063,0.4555976231810932,0.8715294185719246,0.07258009968948229,0.8187905495054003,0.2851194248122195,0.602196817972289,0.7550060128757089,0.6498570108178719,0.3548066141392133,0.3754437639527831,0.2260194395362515,0.3325076027411176,-0.1505363923768025,0.214764653154305,-0.0389300076931304,0.6091583405738299,-0.474689571993675,0.09042460643973117,769.1941391941392,803.040293040293,819.96336996337,771.2087912087912,803.4432234432235,-0.476013,0.087402,0.891602,5.009460,-3.469238,-1.629944,1,1,1,1,1,80.000000
2020-01-09 00:54:51.235,0.9815658029456448,1.730982363893063,0.4555976231810932,0.8715294185719246,0.07258009968948229,0.8187905495054003,0.2851194248122195,0.602196817972289,0.7550060128757089,0.6498570108178719,0.3548066141392133,0.3754437639527831,0.2260194395362515,0.3325076027411176,-0.1505363923768025,0.214764653154305,-0.0389300076931304,0.6091583405738299,-0.474689571993675,0.09042460643973117,811.5018315018315,814.7252747252747,826.8131868131868,817.5457875457876,1205.970695970696,-0.476013,0.087402,0.891602,5.009460,-3.469238,-1.629944,1,1,1,1,1,80.000000
2020-01-09 00:54:51.235,0.9815658029456448,1.730982363893063,0.4555976231810932,0.8715294185719246,0.07258009968948229,0.8187905495054003,0.2851194248122195,0.602196817972289,0.7550060128757089,0.6498570108178719,0.3548066141392133,0.3754437639527831,0.2260194395362515,0.3325076027411176,-0.1505363923768025,0.214764653154305,-0.0389300076931304,0.6091583405738299,-0.474689571993675,0.09042460643973117,777.2527472527473,812.3076923076924,821.1721611721612,776.0439560439561,897.3260073260074,-0.476013,0.087402,0.891602,5.009460,-3.469238,-1.629944,1,1,1,1,1,80.000000
2020-01-09 00:54:51.235,0.9815658029456448,1.730982363893063,0.4555976231810932,0.8715294185719246,0.07258009968948229,0.8187905495054003,0.2851194248122195,0.602196817972289,0.7550060128757089,0.6498570108178719,0.3548066141392133,0.3754437639527831,0.2260194395362515,0.3325076027411176,-0.1505363923768025,0.214764653154305,-0.0389300076931304,0.6091583405738299,-0.474689571993675,0.09042460643973117,728.4981684981685,790.952380952381,811.0989010989011,718.4249084249085,458.5347985347985,-0.476013,0.087402,0.891602,5.009460,-3.469238,-1.629944,1,1,1,1,1,80.000000
2020-01-09 00:54:51.235,0.9815658029456448,1.730982363893063,0.4555976231810932,0.8715294185719246,0.07258009968948229,0.8187905495054003,0.2851194248122195,0.602196817972289,0.7550060128757089,0.6498570108178719,0.3548066141392133,0.3754437639527831,0.2260194395362515,0.3325076027411176,-0.1505363923768025,0.214764653154305,-0.0389300076931304,0.6091583405738299,-0.474689571993675,0.09042460643973117,750.2564102564103,801.025641025641,815.934065934066,741.7948717948718,500.4395604395605,-0.476013,0.087402,0.891602,5.009460,-3.469238,-1.629944,1,1,1,1,1,80.000000
2020-01-09 00:54:51.235,0.9815658029456448,1.730982363893063,0.4555976231810932,0.8715294185719246,0.07258009968948229,0.8187905495054003,0.2851194248122195,0.602196817972289,0.7550060128757089,0.6498570108178719,0.3548066141392133,0.3754437639527831,0.2260194395362515,0.3325076027411176,-0.1505363923768025,0.214764653154305,-0.0389300076931304,0.6091583405738299,-0.474689571993675,0.09042460643973117,797.8021978021978,826.007326007326,826.4102564102565,804.6520146520147,942.4542124542124,-0.476013,0.087402,0.891602,5.009460,-3.469238,-1.629944,1,1,1,1,1,80.000000
2020-01-09 00:54:51.236,0.9815658029456448,1.730982363893063,0.4555976231810932,0.8715294185719246,0.07258009968948229,0.8187905495054003,0.2851194248122195,0.602196817972289,0.7550060128757089,0.6498570108178719,0.3548066141392133,0.3754437639527831,0.2260194395362515,0.3325076027411176,-0.1505363923768025,0.214764653154305,-0.0389300076931304,0.6091583405738299,-0.474689571993675,0.09042460643973117,785.7142857142858,816.7399267399268,823.992673992674,790.5494505494506,997.2527472527473,-0.476013,0.087402,0.891602,5.009460,-3.469238,-1.629944,1,1,1,1,1,80.000000
2020-01-09 00:54:51.236,0.9815658029456448,1.730982363893063,0.4555976231810932,0.8715294185719246,0.07258009968948229,0.8187905495054003,0.2851194248122195,0.602196817972289,0.7550060128757089,0.6498570108178719,0.3548066141392133,0.3754437639527831,0.2260194395362515,0.3325076027411176,-0.1505363923768025,0.214764653154305,-0.0389300076931304,0.6091583405738299,-0.474689571993675,0.09042460643973117,734.5421245421246,786.5201465201466,810.2930402930403,726.0805860805862,574.1758241758242,-0.470703,0.087219,0.878540,4.785156,-3.192596,-2.138367,1,1,1,1,1,80.000000
2020-01-09 00:54:51.236,0.9815658029456448,1.730982363893063,0.4555976231810932,0.8715294185719246,0.07258009968948229,0.8187905495054003,0.2851194248122195,0.602196817972289,0.7550060128757089,0.6498570108178719,0.3548066141392133,0.3754437639527831,0.2260194395362515,0.3325076027411176,-0.1505363923768025,0.214764653154305,-0.0389300076931304,0.6091583405738299,-0.474689571993675,0.09042460643973117,743.8095238095239,778.0586080586081,815.1282051282052,738.5714285714286,626.959706959707,-0.470703,0.087219,0.878540,4.785156,-3.192596,-2.138367,1,1,1,1,1,80.000000
2020-01-09 00:54:51.236,0.9815658029456448,1.730982363893063,0.4555976231810932,0.8715294185719246,0.07258009968948229,0.8187905495054003,0.2851194248122195,0.602196817972289,0.7550060128757089,0.6498570108178719,0.3548066141392133,0.3754437639527831,0.2260194395362515,0.3325076027411176,-0.1505363923768025,0.214764653154305,-0.0389300076931304,0.6091583405738299,-0.474689571993675,0.09042460643973117,796.1904761904763,811.9047619047619,829.2307692307693,790.1465201465202,989.1941391941392,-0.470703,0.087219,0.878540,4.785156,-3.192596,-2.138367,1,1,1,1,1,80.000000
2020-01-09 00:54:51.236,0.9815658029456448,1.730982363893063,0.4555976231810932,0.8715294185719246,0.07258009968948229,0.8187905495054003,0.2851194248122195,0.602196817972289,0.7550060128757089,0.6498570108178719,0.3548066141392133,0.3754437639527831,0.2260194395362515,0.3325076027411176,-0.1505363923768025,0.214764653154305,-0.0389300076931304,0.6091583405738299,-0.474689571993675,0.09042460643973117,794.1758241758242,835.2747252747253,827.6190476190476,786.1172161172161,1005.311355311355,-0.470703,0.087219,0.878540,4.785156,-3.192596,-2.138367,1,1,1,1,1,80.000000
2020-01-09 00:54:51.236,0.9815658029456448,1.730982363893063,0.4555976231810932,0.8715294185719246,0.07258009968948229,0.8187905495054003,0.2851194248122195,0.602196817972289,0.7550060128757089,0.6498570108178719,0.3548066141392133,0.3754437639527831,0.2260194395362515,0.3325076027411176,-0.1505363923768025,0.214764653154305,-0.0389300076931304,0.6091583405738299,-0.474689571993675,0.09042460643973117,745.0183150183151,804.6520146520147,817.948717948718,731.7216117216118,747.8388278388279,-0.470703,0.087219,0.878540,4.785156,-3.192596,-2.138367,1,1,1,1,1,80.000000
2020-01-09 00:54:51.237,0.9815658029456448,1.730982363893063,0.4555976231810932,0.8715294185719246,0.07258009968948229,0.8187905495054003,0.2851194248122195,0.602196817972289,0.7550060128757089,0.6498570108178719,0.3548066141392133,0.3754437639527831,0.2260194395362515,0.3325076027411176,-0.1505363923768025,0.214764653154305,-0.0389300076931304,0.6091583405738299,-0.474689571993675,0.09042460643973117,730.9157509157509,783.6996336996338,813.1135531135532,718.8278388278388,450.4761904761905,-0.470703,0.087219,0.878540,4.785156,-3.192596,-2.138367,1,1,1,1,1,80.000000
2020-01-09 00:54:51.237,0.9815658029456448,1.730982363893063,0.4555976231810932,0.8715294185719246,0.07258009968948229,0.8187905495054003,0.2851194248122195,0.602196817972289,0.7550060128757089,0.6498570108178719,0.3548066141392133,0.3754437639527831,0.2260194395362515,0.3325076027411176,-0.1505363923768025,0.214764653154305,-0.0389300076931304,0.6091583405738299,-0.474689571993675,0.09042460643973117,778.8644688644689,806.6666666666667,819.5604395604396,775.6410256410256,619.3040293040293,-0.470703,0.087219,0.878540,4.785156,-3.192596,-2.138367,1,1,1,1,1,80.000000
2020-01-09 00:54:51.237,0.9815658029456448,1.730982363893063,0.4555976231810932,0.8715294185719246,0.07258009968948229,0.8187905495054003,0.2851194248122195,0.602196817972289,0.7550060128757089,0.6498570108178719,0.3548066141392133,0.3754437639527831,0.2260194395362515,0.3325076027411176,-0.1505363923768025,0.214764653154305,-0.0389300076931304,0.6091583405738299,-0.474689571993675,0.09042460643973117,809.0842490842491,830.8424908424909,828.4249084249085,801.8315018315019,1046.410256410256,-0.470703,0.087219,0.878540,4.785156,-3.192596,-2.138367,1,1,1,1,1,80.000000
2020-01-09 00:54:51.237,0.9815658029456448,1.730982363893063,0.4555976231810932,0.8715294185719246,0.07258009968948229,0.8187905495054003,0.2851194248122195,0.602196817972289,0.7550060128757089,0.6498570108178719,0.3548066141392133,0.3754437639527831,0.2260194395362515,0.3325076027411176,-0.1505363923768025,0.214764653154305,-0.0389300076931304,0.6091583405738299,-0.474689571993675,0.09042460643973117,761.941391941392,818.3516483516484,820.3663003663004,751.8681318681319,853.4065934065934,-0.470703,0.087219,0.878540,4.785156,-3.192596,-2.138367,1,1,1,1,1,80.000000
2020-01-09 00:54:51.237,0.9815658029456448,1.730982363893063,0.4555976231810932,0.8715294185719246,0.07258009968948229,0.8187905495054003,0.2851194248122195,0.602196817972289,0.7550060128757089,0.6498570108178719,0.3548066141392133,0.3754437639527831,0.2260194395362515,0.3325076027411176,-0.1505363923768025,0.214764653154305,-0.0389300076931304,0.6091583405738299,-0.474689571993675,0.09042460643973117,725.6776556776557,781.2820512820513,810.2930402930403,721.6483516483516,648.3150183150183,-0.470703,0.087219,0.878540,4.785156,-3.192596,-2.138367,1,1,1,1,1,80.000000
2020-01-09 00:54:51.237,0.9815658029456448,1.730982363893063,0.4555976231810932,0.8715294185719246,0.07258009968948229,0.8187905495054003,0.2851194248122195,0.602196817972289,0.7550060128757089,0.6498570108178719,0.3548066141392133,0.3754437639527831,0.2260194395362515,0.3325076027411176,-0.1505363923768025,0.214764653154305,-0.0389300076931304,0.6091583405738299,-0.474689571993675,0.09042460643973117,760.3296703296703,806.2637362637363,823.1868131868132,766.3736263736264,876.3736263736264,-0.470703,0.087219,0.878540,4.785156,-3.192596,-2.138367,1,1,1,1,1,80.000000
2020-01-09 00:54:51.238,0.9815658029456448,1.730982363893063,0.4555976231810932,0.8715294185719246,0.07258009968948229,0.8187905495054003,0.2851194248122195,0.602196817972289,0.7550060128757089,0.6498570108178719,0.3548066141392133,0.3754437639527831,0.2260194395362515,0.3325076027411176,-0.1505363923768025,0.214764653154305,-0.0389300076931304,0.6091583405738299,-0.474689571993675,0.09042460643973117,799.0109890109891,849.7802197802198,833.2600732600733,806.6666666666667,1104.029304029304,-0.470703,0.087219,0.878540,4.785156,-3.192596,-2.138367,1,1,1,1,1,80.000000
2020-01-09 00:54:51.238,0.9815658029456448,1.730982363893063,0.4555976231810932,0.8715294185719246,0.07258009968948229,0.8187905495054003,0.2851194248122195,0.602196817972289,0.7550060128757089,0.6498570108178719,0.3548066141392133,0.3754437639527831,0.2260194395362515,0.3325076027411176,-0.1505363923768025,0.214764653154305,-0.0389300076931304,0.6091583405738299,-0.474689571993675,0.09042460643973117,769.1941391941392,831.6483516483516,822.7838827838829,772.014652014652,1056.886446886447,-0.470703,0.087219,0.878540,4.785156,-3.192596,-2.138367,1,1,1,1,1,80.000000
2020-01-09 00:54:51.238,0.9815658029456448,1.730982363893063,0.4555976231810932,0.8715294185719246,0.07258009968948229,0.8187905495054003,0.2851194248122195,0.602196817972289,0.7550060128757089,0.6498570108178719,0.3548066141392133,0.3754437639527831,0.2260194395362515,0.3325076027411176,-0.1505363923768025,0.214764653154305,-0.0389300076931304,0.6091583405738299,-0.474689571993675,0.09042460643973117,721.2454212454213,808.6813186813187,814.7252747252747,711.5750915750916,655.5677655677656,-0.470703,0.087219,0.878540,4.785156,-3.192596,-2.138367,1,1,1,1,1,80.000000
2020-01-09 00:54:51.238,0.9815658029456448,1.730982363893063,0.4555976231810932,0.8715294185719246,0.07258009968948229,0.8187905495054003,0.2851194248122195,0.602196817972289,0.7550060128757089,0.6498570108178719,0.3548066141392133,0.3754437639527831,0.2260194395362515,0.3325076027411176,-0.1505363923768025,0.214764653154305,-0.0389300076931304,0.6091583405738299,-0.474689571993675,0.09042460643973117,745.8241758241759,812.3076923076924,819.1575091575091,733.7362637362637,577.8021978021978,-0.470703,0.087219,0.878540,4.785156,-3.192596,-2.138367,1,1,1,1,1,80.000000
2020-01-09 00:54:51.238,0.9815658029456448,1.730982363893063,0.4555976231810932,0.8715294185719246,0.07258009968948229,0.8187905495054003,0.2851194248122195,0.602196817972289,0.7550060128757089,0.6498570108178719,0.3548066141392133,0.3754437639527831,0.2260194395362515,0.3325076027411176,-0.1505363923768025,0.214764653154305,-0.0389300076931304,0.6091583405738299,-0.474689571993675,0.09042460643973117,797.8021978021978,831.6483516483516,827.6190476190476,795.7875457875458,956.959706959707,-0.470703,0.087219,0.878540,4.785156,-3.192596,-2.138367,1,1,1,1,1,80.000000
2020-01-09 00:54:51.238,0.9815658029456448,1.730982363893063,0.4555976231810932,0.8715294185719246,0.07258009968948229,0.8187905495054003,0.2851194248122195,0.602196817972289,0.7550060128757089,0.6498570108178719,0.3548066141392133,0.3754437639527831,0.2260194395362515,0.3325076027411176,-0.1505363923768025,0.214764653154305,-0.0389300076931304,0.6091583405738299,-0.474689571993675,0.09042460643973117,794.981684981685,819.1575091575091,822.3809523809524,787.7289377289378,1172.930402930403,-0.470703,0.087219,0.878540,4.785156,-3.192596,-2.138367,1,1,1,1,1,80.000000
2020-01-09 00:54:51.239,0.9815658029456448,1.730982363893063,0.4555976231810932,0.8715294185719246,0.07258009968948229,0.8187905495054003,0.2851194248122195,0.602196817972289,0.7550060128757089,0.6498570108178719,0.3548066141392133,0.3754437639527831,0.2260194395362515,0.3325076027411176,-0.1505363923768025,0.214764653154305,-0.0389300076931304,0.6091583405738299,-0.474689571993675,0.09042460643973117,743.8095238095239,794.1758241758242,815.1282051282052,725.2747252747253,809.0842490842491,-0.470703,0.087219,0.878540,4.785156,-3.192596,-2.138367,1,1,1,1,1,80.000000
2020-01-09 00:54:51.239,0.9815658029456448,1.730982363893063,0.4555976231810932,0.8715294185719246,0.07258009968948229,0.8187905495054003,0.2851194248122195,0.602196817972289,0.7550060128757089,0.6498570108178719,0.3548066141392133,0.3754437639527831,0.2260194395362515,0.3325076027411176,-0.1505363923768025,0.214764653154305,-0.0389300076931304,0.6091583405738299,-0.474689571993675,0.09042460643973117,732.9304029304029,801.025641025641,819.1575091575091,717.6190476190476,565.3113553113553,-0.470703,0.087219,0.878540,4.785156,-3.192596,-2.138367,1,1,1,1,1,80.000000
2020-01-09 00:54:51.239,0.9815658029456448,1.723477406046857,0.4005049192973698,0.8715294185719246,0.07258009968948229,0.8211603355883924,0.1703144948385389,0.602196817972289,0.7550060128757089,0.6498570108178719,0.1417851716288789,0.3754437639527831,0.2260194395362515,0.3142120669949748,-0.1760041768967368,0.214764653154305,-0.0389300076931304,0.6019442879888794,-0.466607469950244,0.09042460643973117,784.1025641025641,827.6190476190476,827.2161172161173,772.8205128205128,829.2307692307693,-0.470703,0.087219,0.878540,4.785156,-3.192596,-2.138367,1,1,1,1,1,80.000000
2020-01-09 00:54:51.240,0.9815658029456448,1.723477406046857,0.4005049192973698,0.8715294185719246,0.07258009968948229,0.8211603355883924,0.1703144948385389,0.602196817972289,0.7550060128757089,0.6498570108178719,0.1417851716288789,0.3754437639527831,0.2260194395362515,0.3142120669949748,-0.1760041768967368,0.214764653154305,-0.0389300076931304,0.6019442879888794,-0.466607469950244,0.09042460643973117,802.6373626373627,837.2893772893773,828.8278388278388,790.5494505494506,1004.505494505495,-0.470703,0.087219,0.878540,4.785156,-3.192596,-2.138367,1,1,1,1,1,80.000000
2020-01-09 00:54:51.240,0.9815658029456448,1.723477406046857,0.4005049192973698,0.8715294185719246,0.07258009968948229,0.8211603355883924,0.1703144948385389,0.602196817972289,0.7550060128757089,0.6498570108178719,0.1417851716288789,0.3754437639527831,0.2260194395362515,0.3142120669949748,-0.1760041768967368,0.214764653154305,-0.0389300076931304,0.6019442879888794,-0.466607469950244,0.09042460643973117,753.0769230769231,819.96336996337,821.5750915750916,737.3626373626374,771.6117216117216,-0.470703,0.087219,0.878540,4.785156,-3.192596,-2.138367,1,1,1,1,1,80.000000
2020-01-09 00:54:51.240,0.9815658029456448,1.723477406046857,0.4005049192973698,0.8715294185719246,0.07258009968948229,0.8211603355883924,0.1703144948385389,0.602196817972289,0.7550060128757089,0.6498570108178719,0.1417851716288789,0.3754437639527831,0.2260194395362515,0.3142120669949748,-0.1760041768967368,0.214764653154305,-0.0389300076931304,0.6019442879888794,-0.466607469950244,0.09042460643973117,727.6923076923077,811.0989010989011,816.3369963369963,711.1721611721612,582.6373626373627,-0.470703,0.087219,0.878540,4.785156,-3.192596,-2.138367,1,1,1,1,1,80.000000
2020-01-09 00:54:51.240,0.9815658029456448,1.723477406046857,0.4005049192973698,0.8715294185719246,0.07258009968948229,0.8211603355883924,0.1703144948385389,0.602196817972289,0.7550060128757089,0.6498570108178719,0.1417851716288789,0.3754437639527831,0.2260194395362515,0.3142120669949748,-0.1760041768967368,0.214764653154305,-0.0389300076931304,0.6019442879888794,-0.466607469950244,0.09042460643973117,774.4322344322345,833.2600732600733,827.6190476190476,763.5531135531136,815.934065934066,-0.470703,0.087219,0.878540,4.785156,-3.192596,-2.138367,1,1,1,1,1,80.000000
2020-01-09 00:54:51.241,0.9815658029456448,1.723477406046857,0.4005049192973698,0.8715294185719246,0.07258009968948229,0.8211603355883924,0.1703144948385389,0.602196817972289,0.7550060128757089,0.6498570108178719,0.1417851716288789,0.3754437639527831,0.2260194395362515,0.3142120669949748,-0.1760041768967368,0.214764653154305,-0.0389300076931304,0.6019442879888794,-0.466607469950244,0.09042460643973117,811.5018315018315,835.6776556776557,833.6630036630037,807.8754578754579,1203.956043956044,-0.476807,0.088867,0.883057,5.046844,-3.065491,-1.667328,1,1,1,1,1,80.000000
2020-01-09 00:54:51.241,0.9815658029456448,1.723477406046857,0.4005049192973698,0.8715294185719246,0.07258009968948229,0.8211603355883924,0.1703144948385389,0.602196817972289,0.7550060128757089,0.6498570108178719,0.1417851716288789,0.3754437639527831,0.2260194395362515,0.3142120669949748,-0.1760041768967368,0.214764653154305,-0.0389300076931304,0.6019442879888794,-0.466607469950244,0.09042460643973117,772.4175824175825,823.5897435897436,827.2161172161173,764.7619047619048,1180.989010989011,-0.476807,0.088867,0.883057,5.046844,-3.065491,-1.667328,1,1,1,1,1,80.000000
2020-01-09 00:54:51.241,0.9815658029456448,1.723477406046857,0.4005049192973698,0.8715294185719246,0.07258009968948229,0.8211603355883924,0.1703144948385389,0.602196817972289,0.7550060128757089,0.6498570108178719,0.1417851716288789,0.3754437639527831,0.2260194395362515,0.3142120669949748,-0.1760041768967368,0.214764653154305,-0.0389300076931304,0.6019442879888794,-0.466607469950244,0.09042460643973117,720.8424908424909,820.7692307692308,821.5750915750916,709.9633699633699,618.0952380952381,-0.476807,0.088867,0.883057,5.046844,-3.065491,-1.667328,1,1,1,1,1,80.000000
2020-01-09 00:54:51.241,0.9815658029456448,1.723477406046857,0.4005049192973698,0.8715294185719246,0.07258009968948229,0.8211603355883924,0.1703144948385389,0.602196817972289,0.7550060128757089,0.6498570108178719,0.1417851716288789,0.3754437639527831,0.2260194395362515,0.3142120669949748,-0.1760041768967368,0.214764653154305,-0.0389300076931304,0.6019442879888794,-0.466607469950244,0.09042460643973117,744.2124542124542,823.5897435897436,826.007326007326,749.047619047619,504.4688644688645,-0.476807,0.088867,0.883057,5.046844,-3.065491,-1.667328,1,1,1,1,1,80.000000
2020-01-09 00:54:51.241,0.9815658029456448,1.723477406046857,0.4005049192973698,0.8715294185719246,0.07258009968948229,0.8211603355883924,0.1703144948385389,0.602196817972289,0.7550060128757089,0.6498570108178719,0.1417851716288789,0.3754437639527831,0.2260194395362515,0.3142120669949748,-0.1760041768967368,0.214764653154305,-0.0389300076931304,0.6019442879888794,-0.466607469950244,0.09042460643973117,803.040293040293,846.5567765567765,834.0659340659341,805.8608058608058,921.5018315018315,-0.476807,0.088867,0.883057,5.046844,-3.065491,-1.667328,1,1,1,1,1,80.000000
2020-01-09 00:54:51.241,0.9815658029456448,1.723477406046857,0.4005049192973698,0.8715294185719246,0.07258009968948229,0.8211603355883924,0.1703144948385389,0.602196817972289,0.7550060128757089,0.6498570108178719,0.1417851716288789,0.3754437639527831,0.2260194395362515,0.3142120669949748,-0.1760041768967368,0.214764653154305,-0.0389300076931304,0.6019442879888794,-0.466607469950244,0.09042460643973117,789.7435897435897,834.0659340659341,826.4102564102565,779.6703296703297,941.6483516483516,-0.476807,0.088867,0.883057,5.046844,-3.065491,-1.667328,1,1,1,1,1,80.000000
2020-01-09 00:54:51.242,0.9815658029456448,1.723477406046857,0.4005049192973698,0.8715294185719246,0.07258009968948229,0.8211603355883924,0.1703144948385389,0.602196817972289,0.7550060128757089,0.6498570108178719,0.1417851716288789,0.3754437639527831,0.2260194395362515,0.3142120669949748,-0.1760041768967368,0.214764653154305,-0.0389300076931304,0.6019442879888794,-0.466607469950244,0.09042460643973117,738.5714285714286,806.6666666666667,818.3516483516484,722.8571428571429,619.3040293040293,-0.476807,0.088867,0.883057,5.046844,-3.065491,-1.667328,1,1,1,1,1,80.000000
2020-01-09 00:54:51.242,0.9815658029456448,1.723477406046857,0.4005049192973698,0.8715294185719246,0.07258009968948229,0.8211603355883924,0.1703144948385389,0.602196817972289,0.7550060128757089,0.6498570108178719,0.1417851716288789,0.3754437639527831,0.2260194395362515,0.3142120669949748,-0.1760041768967368,0.214764653154305,-0.0389300076931304,0.6019442879888794,-0.466607469950244,0.09042460643973117,754.2857142857143,813.5164835164835,820.3663003663004,735.7509157509157,539.92673992674,-0.476807,0.088867,0.883057,5.046844,-3.065491,-1.667328,1,1,1,1,1,80.000000
2020-01-09 00:54:51.242,0.9815658029456448,1.723477406046857,0.4005049192973698,0.8715294185719246,0.07258009968948229,0.8211603355883924,0.1703144948385389,0.602196817972289,0.7550060128757089,0.6498570108178719,0.1417851716288789,0.3754437639527831,0.2260194395362515,0.3142120669949748,-0.1760041768967368,0.214764653154305,-0.0389300076931304,0.6019442879888794,-0.466607469950244,0.09042460643973117,804.2490842490843,842.1245421245421,828.8278388278388,790.952380952381,903.7728937728938,-0.476807,0.088867,0.883057,5.046844,-3.065491,-1.667328,1,1,1,1,1,80.000000
2020-01-09 00:54:51.242,0.9815658029456448,1.723477406046857,0.4005049192973698,0.8715294185719246,0.07258009968948229,0.8211603355883924,0.1703144948385389,0.602196817972289,0.7550060128757089,0.6498570108178719,0.1417851716288789,0.3754437639527831,0.2260194395362515,0.3142120669949748,-0.1760041768967368,0.214764653154305,-0.0389300076931304,0.6019442879888794,-0.466607469950244,0.09042460643973117,800.6227106227107,853.8095238095239,828.4249084249085,785.3113553113553,1065.750915750916,-0.476807,0.088867,0.883057,5.046844,-3.065491,-1.667328,1,1,1,1,1,80.000000
2020-01-09 00:54:51.242,0.9815658029456448,1.723477406046857,0.4005049192973698,0.8715294185719246,0.07258009968948229,0.8211603355883924,0.1703144948385389,0.602196817972289,0.7550060128757089,0.6498570108178719,0.1417851716288789,0.3754437639527831,0.2260194395362515,0.3142120669949748,-0.1760041768967368,0.214764653154305,-0.0389300076931304,0.6019442879888794,-0.466607469950244,0.09042460643973117,744.2124542124542,823.1868131868132,813.5164835164835,723.2600732600732,724.4688644688645,-0.476807,0.088867,0.883057,5.046844,-3.065491,-1.667328,1,1,1,1,1,80.000000
2020-01-09 00:54:51.243,0.9815658029456448,1.723477406046857,0.4005049192973698,0.8715294185719246,0.07258009968948229,0.8211603355883924,0.1703144948385389,0.602196817972289,0.7550060128757089,0.6498570108178719,0.1417851716288789,0.3754437639527831,0.2260194395362515,0.3142120669949748,-0.1760041768967368,0.214764653154305,-0.0389300076931304,0.6019442879888794,-0.466607469950244,0.09042460643973117,734.1391941391942,812.3076923076924,809.4871794871796,710.7692307692308,530.6593406593407,-0.476807,0.088867,0.883057,5.046844,-3.065491,-1.667328,1,1,1,1,1,80.000000
2020-01-09 00:54:51.243,0.9815658029456448,1.723477406046857,0.4005049192973698,0.8715294185719246,0.07258009968948229,0.8211603355883924,0.1703144948385389,0.602196817972289,0.7550060128757089,0.6498570108178719,0.1417851716288789,0.3754437639527831,0.2260194395362515,0.3142120669949748,-0.1760041768967368,0.214764653154305,-0.0389300076931304,0.6019442879888794,-0.466607469950244,0.09042460643973117,786.9230769230769,845.3479853479854,819.1575091575091,767.5824175824176,879.5970695970697,-0.474609,0.087585,0.885132,4.747772,-3.551483,-1.600037,1,1,1,1,1,80.000000
2020-01-09 00:54:51.243,0.9815658029456448,1.723477406046857,0.4005049192973698,0.8715294185719246,0.07258009968948229,0.8211603355883924,0.1703144948385389,0.602196817972289,0.7550060128757089,0.6498570108178719,0.1417851716288789,0.3754437639527831,0.2260194395362515,0.3142120669949748,-0.1760041768967368,0.214764653154305,-0.0389300076931304,0.6019442879888794,-0.466607469950244,0.09042460643973117,804.6520146520147,859.4505494505495,822.7838827838829,786.5201465201466,1230.549450549451,-0.474609,0.087585,0.885132,4.747772,-3.551483,-1.600037,1,1,1,1,1,80.000000
2020-01-09 00:54:51.243,0.9815658029456448,1.723477406046857,0.4005049192973698,0.8715294185719246,0.07258009968948229,0.8211603355883924,0.1703144948385389,0.602196817972289,0.7550060128757089,0.6498570108178719,0.1417851716288789,0.3754437639527831,0.2260194395362515,0.3142120669949748,-0.1760041768967368,0.214764653154305,-0.0389300076931304,0.6019442879888794,-0.466607469950244,0.09042460643973117,756.3003663003664,838.901098901099,815.1282051282052,732.5274725274726,984.3589743589744,-0.474609,0.087585,0.885132,4.747772,-3.551483,-1.600037,1,1,1,1,1,80.000000
2020-01-09 00:54:51.243,0.9815658029456448,1.723477406046857,0.4005049192973698,0.8715294185719246,0.07258009968948229,0.8211603355883924,0.1703144948385389,0.602196817972289,0.7550060128757089,0.6498570108178719,0.1417851716288789,0.3754437639527831,0.2260194395362515,0.3142120669949748,-0.1760041768967368,0.214764653154305,-0.0389300076931304,0.6019442879888794,-0.466607469950244,0.09042460643973117,733.3333333333334,813.1135531135532,810.6959706959707,707.1428571428571,701.0989010989011,-0.474609,0.087585,0.885132,4.747772,-3.551483,-1.600037,1,1,1,1,1,80.000000
2020-01-09 00:54:51.243,0.9815658029456448,1.723477406046857,0.4005049192973698,0.8715294185719246,0.07258009968948229,0.8211603355883924,0.1703144948385389,0.602196817972289,0.7550060128757089,0.6498570108178719,0.1417851716288789,0.3754437639527831,0.2260194395362515,0.3142120669949748,-0.1760041768967368,0.214764653154305,-0.0389300076931304,0.6019442879888794,-0.466607469950244,0.09042460643973117,782.893772893773,821.978021978022,821.1721611721612,756.7032967032967,1027.069597069597,-0.474609,0.087585,0.885132,4.747772,-3.551483,-1.600037,1,1,1,1,1,80.000000
2020-01-09 00:54:51.244,0.9815658029456448,1.723477406046857,0.4005049192973698,0.8715294185719246,0.07258009968948229,0.8211603355883924,0.1703144948385389,0.602196817972289,0.7550060128757089,0.6498570108178719,0.1417851716288789,0.3754437639527831,0.2260194395362515,0.3142120669949748,-0.1760041768967368,0.214764653154305,-0.0389300076931304,0.6019442879888794,-0.466607469950244,0.09042460643973117,816.3369963369963,856.2271062271062,830.4395604395604,794.1758241758242,1305.494505494506,-0.474609,0.087585,0.885132,4.747772,-3.551483,-1.600037,1,1,1,1,1,80.000000
2020-01-09 00:54:51.244,0.9815658029456448,1.723477406046857,0.4005049192973698,0.8715294185719246,0.07258009968948229,0.8211603355883924,0.1703144948385389,0.602196817972289,0.7550060128757089,0.6498570108178719,0.1417851716288789,0.3754437639527831,0.2260194395362515,0.3142120669949748,-0.1760041768967368,0.214764653154305,-0.0389300076931304,0.6019442879888794,-0.466607469950244,0.09042460643973117,776.0439560439561,846.959706959707,818.7545787545788,749.4505494505495,1103.223443223443,-0.474609,0.087585,0.885132,4.747772,-3.551483,-1.600037,1,1,1,1,1,80.000000
2020-01-09 00:54:51.244,0.9815658029456448,1.723477406046857,0.4005049192973698,0.8715294185719246,0.07258009968948229,0.8211603355883924,0.1703144948385389,0.602196817972289,0.7550060128757089,0.6498570108178719,0.1417851716288789,0.3754437639527831,0.2260194395362515,0.3142120669949748,-0.1760041768967368,0.214764653154305,-0.0389300076931304,0.6019442879888794,-0.466607469950244,0.09042460643973117,728.4981684981685,821.978021978022,811.5018315018315,697.0695970695971,638.2417582417582,-0.474609,0.087585,0.885132,4.747772,-3.551483,-1.600037,1,1,1,1,1,80.000000
2020-01-09 00:54:51.244,0.9815658029456448,1.723477406046857,0.4005049192973698,0.8715294185719246,0.07258009968948229,0.8211603355883924,0.1703144948385389,0.602196817972289,0.7550060128757089,0.6498570108178719,0.1417851716288789,0.3754437639527831,0.2260194395362515,0.3142120669949748,-0.1760041768967368,0.214764653154305,-0.0389300076931304,0.6019442879888794,-0.466607469950244,0.09042460643973117,755.0915750915751,832.0512820512821,819.1575091575091,732.5274725274726,563.6996336996338,-0.474609,0.087585,0.885132,4.747772,-3.551483,-1.600037,1,1,1,1,1,80.000000
2020-01-09 00:54:51.244,0.9815658029456448,1.703098288828085,0.3692680703440227,0.8715294185719246,0.07258009968948229,0.8018790769655862,0.08873291866983256,0.602196817972289,0.7550060128757089,0.6498570108178719,0.002999014912984437,0.3754437639527831,0.2260194395362515,0.2973696398263849,-0.1967063775485456,0.214764653154305,-0.0389300076931304,0.592029247903024,-0.4603672655992538,0.09042460643973117,806.2637362637363,847.7655677655678,827.6190476190476,793.3699633699634,1004.102564102564,-0.474609,0.087585,0.885132,4.747772,-3.551483,-1.600037,1,1,1,1,1,80.000000
2020-01-09 00:54:51.245,0.9815658029456448,1.703098288828085,0.3692680703440227,0.8715294185719246,0.07258009968948229,0.8018790769655862,0.08873291866983256,0.602196817972289,0.7550060128757089,0.6498570108178719,0.002999014912984437,0.3754437639527831,0.2260194395362515,0.2973696398263849,-0.1967063775485456,0.214764653154305,-0.0389300076931304,0.592029247903024,-0.4603672655992538,0.09042460643973117,787.7289377289378,838.4981684981685,825.6043956043957,776.8498168498169,959.7802197802198,-0.474609,0.087585,0.885132,4.747772,-3.551483,-1.600037,1,1,1,1,1,80.000000
2020-01-09 00:54:51.245,0.9815658029456448,1.703098288828085,0.3692680703440227,0.8715294185719246,0.07258009968948229,0.8018790769655862,0.08873291866983256,0.602196817972289,0.7550060128757089,0.6498570108178719,0.002999014912984437,0.3754437639527831,0.2260194395362515,0.2973696398263849,-0.1967063775485456,0.214764653154305,-0.0389300076931304,0.592029247903024,-0.4603672655992538,0.09042460643973117,740.989010989011,809.4871794871796,815.5311355311355,722.8571428571429,647.9120879120879,-0.474609,0.087585,0.885132,4.747772,-3.551483,-1.600037,1,1,1,1,1,80.000000
2020-01-09 00:54:51.246,0.9815658029456448,1.703098288828085,0.3692680703440227,0.8715294185719246,0.07258009968948229,0.8018790769655862,0.08873291866983256,0.602196817972289,0.7550060128757089,0.6498570108178719,0.002999014912984437,0.3754437639527831,0.2260194395362515,0.2973696398263849,-0.1967063775485456,0.214764653154305,-0.0389300076931304,0.592029247903024,-0.4603672655992538,0.09042460643973117,745.8241758241759,805.8608058608058,817.948717948718,730.1098901098901,723.6630036630037,-0.470581,0.089783,0.885864,4.411316,-3.558960,-2.003784,1,1,1,1,1,80.000000
2020-01-09 00:54:51.246,0.9815658029456448,1.703098288828085,0.3692680703440227,0.8715294185719246,0.07258009968948229,0.8018790769655862,0.08873291866983256,0.602196817972289,0.7550060128757089,0.6498570108178719,0.002999014912984437,0.3754437639527831,0.2260194395362515,0.2973696398263849,-0.1967063775485456,0.214764653154305,-0.0389300076931304,0.592029247903024,-0.4603672655992538,0.09042460643973117,788.9377289377289,840.9157509157509,830.4395604395604,782.4908424908425,922.3076923076924,-0.470581,0.089783,0.885864,4.411316,-3.558960,-2.003784,1,1,1,1,1,80.000000
2020-01-09 00:54:51.246,0.9815658029456448,1.703098288828085,0.3692680703440227,0.8715294185719246,0.07258009968948229,0.8018790769655862,0.08873291866983256,0.602196817972289,0.7550060128757089,0.6498570108178719,0.002999014912984437,0.3754437639527831,0.2260194395362515,0.2973696398263849,-0.1967063775485456,0.214764653154305,-0.0389300076931304,0.592029247903024,-0.4603672655992538,0.09042460643973117,801.025641025641,851.3919413919414,830.8424908424909,787.3260073260074,1068.974358974359,-0.470581,0.089783,0.885864,4.411316,-3.558960,-2.003784,1,1,1,1,1,80.000000
2020-01-09 00:54:51.246,0.9815658029456448,1.703098288828085,0.3692680703440227,0.8715294185719246,0.07258009968948229,0.8018790769655862,0.08873291866983256,0.602196817972289,0.7550060128757089,0.6498570108178719,0.002999014912984437,0.3754437639527831,0.2260194395362515,0.2973696398263849,-0.1967063775485456,0.214764653154305,-0.0389300076931304,0.592029247903024,-0.4603672655992538,0.09042460643973117,754.2857142857143,831.2454212454213,820.3663003663004,728.4981684981685,804.6520146520147,-0.470581,0.089783,0.885864,4.411316,-3.558960,-2.003784,1,1,1,1,1,80.000000
2020-01-09 00:54:51.246,0.9815658029456448,1.703098288828085,0.3692680703440227,0.8715294185719246,0.07258009968948229,0.8018790769655862,0.08873291866983256,0.602196817972289,0.7550060128757089,0.6498570108178719,0.002999014912984437,0.3754437639527831,0.2260194395362515,0.2973696398263849,-0.1967063775485456,0.214764653154305,-0.0389300076931304,0.592029247903024,-0.4603672655992538,0.09042460643973117,735.3479853479854,819.96336996337,817.1428571428571,715.2014652014652,530.2564102564103,-0.470581,0.089783,0.885864,4.411316,-3.558960,-2.003784,1,1,1,1,1,80.000000
2020-01-09 00:54:51.246,0.9815658029456448,1.703098288828085,0.3692680703440227,0.8715294185719246,0.07258009968948229,0.8018790769655862,0.08873291866983256,0.602196817972289,0.7550060128757089,0.6498570108178719,0.002999014912984437,0.3754437639527831,0.2260194395362515,0.2973696398263849,-0.1967063775485456,0.214764653154305,-0.0389300076931304,0.592029247903024,-0.4603672655992538,0.09042460643973117,783.2967032967033,833.6630036630037,822.3809523809524,774.4322344322345,791.7582417582418,-0.470581,0.089783,0.885864,4.411316,-3.558960,-2.003784,1,1,1,1,1,80.000000
2020-01-09 00:54:51.247,0.9815658029456448,1.703098288828085,0.3692680703440227,0.8715294185719246,0.07258009968948229,0.8018790769655862,0.08873291866983256,0.602196817972289,0.7550060128757089,0.6498570108178719,0.002999014912984437,0.3754437639527831,0.2260194395362515,0.2973696398263849,-0.1967063775485456,0.214764653154305,-0.0389300076931304,0.592029247903024,-0.4603672655992538,0.09042460643973117,809.8901098901099,845.3479853479854,826.007326007326,800.6227106227107,1133.040293040293,-0.470581,0.089783,0.885864,4.411316,-3.558960,-2.003784,1,1,1,1,1,80.000000
2020-01-09 00:54:51.247,0.9815658029456448,1.703098288828085,0.3692680703440227,0.8715294185719246,0.07258009968948229,0.8018790769655862,0.08873291866983256,0.602196817972289,0.7550060128757089,0.6498570108178719,0.002999014912984437,0.3754437639527831,0.2260194395362515,0.2973696398263849,-0.1967063775485456,0.214764653154305,-0.0389300076931304,0.592029247903024,-0.4603672655992538,0.09042460643973117,759.5238095238095,808.6813186813187,811.9047619047619,749.047619047619,1110.07326007326,-0.470581,0.089783,0.885864,4.411316,-3.558960,-2.003784,1,1,1,1,1,80.000000
2020-01-09 00:54:51.247,0.9815658029456448,1.703098288828085,0.3692680703440227,0.8715294185719246,0.07258009968948229,0.8018790769655862,0.08873291866983256,0.602196817972289,0.7550060128757089,0.6498570108178719,0.002999014912984437,0.3754437639527831,0.2260194395362515,0.2973696398263849,-0.1967063775485456,0.214764653154305,-0.0389300076931304,0.592029247903024,-0.4603672655992538,0.09042460643973117,720.0366300366301,786.9230769230769,803.4432234432235,706.7399267399268,670.0732600732601,-0.470581,0.089783,0.885864,4.411316,-3.558960,-2.003784,1,1,1,1,1,80.000000
2020-01-09 00:54:51.247,0.9815658029456448,1.703098288828085,0.3692680703440227,0.8715294185719246,0.07258009968948229,0.8018790769655862,0.08873291866983256,0.602196817972289,0.7550060128757089,0.6498570108178719,0.002999014912984437,0.3754437639527831,0.2260194395362515,0.2973696398263849,-0.1967063775485456,0.214764653154305,-0.0389300076931304,0.592029247903024,-0.4603672655992538,0.09042460643973117,761.941391941392,820.3663003663004,817.5457875457876,745.8241758241759,507.6923076923077,-0.470581,0.089783,0.885864,4.411316,-3.558960,-2.003784,1,1,1,1,1,80.000000
2020-01-09 00:54:51.247,0.9815658029456448,1.703098288828085,0.3692680703440227,0.8715294185719246,0.07258009968948229,0.8018790769655862,0.08873291866983256,0.602196817972289,0.7550060128757089,0.6498570108178719,0.002999014912984437,0.3754437639527831,0.2260194395362515,0.2973696398263849,-0.1967063775485456,0.214764653154305,-0.0389300076931304,0.592029247903024,-0.4603672655992538,0.09042460643973117,806.2637362637363,833.6630036630037,823.5897435897436,790.5494505494506,877.1794871794872,-0.470581,0.089783,0.885864,4.411316,-3.558960,-2.003784,1,1,1,1,1,80.000000
2020-01-09 00:54:51.247,0.9815658029456448,1.703098288828085,0.3692680703440227,0.8715294185719246,0.07258009968948229,0.8018790769655862,0.08873291866983256,0.602196817972289,0.7550060128757089,0.6498570108178719,0.002999014912984437,0.3754437639527831,0.2260194395362515,0.2973696398263849,-0.1967063775485456,0.214764653154305,-0.0389300076931304,0.592029247903024,-0.4603672655992538,0.09042460643973117,774.8351648351648,813.5164835164835,818.7545787545788,758.3150183150184,869.1208791208792,-0.470581,0.089783,0.885864,4.411316,-3.558960,-2.003784,1,1,1,1,1,80.000000
2020-01-09 00:54:51.247,0.9815658029456448,1.703098288828085,0.3692680703440227,0.8715294185719246,0.07258009968948229,0.8018790769655862,0.08873291866983256,0.602196817972289,0.7550060128757089,0.6498570108178719,0.002999014912984437,0.3754437639527831,0.2260194395362515,0.2973696398263849,-0.1967063775485456,0.214764653154305,-0.0389300076931304,0.592029247903024,-0.4603672655992538,0.09042460643973117,730.9157509157509,787.3260073260074,813.1135531135532,716.8131868131868,514.9450549450549,-0.477478,0.089417,0.891541,5.271149,-3.095398,-1.547699,1,1,1,1,1,80.000000
2020-01-09 00:54:51.248,0.9815658029456448,1.703098288828085,0.3692680703440227,0.8715294185719246,0.07258009968948229,0.8018790769655862,0.08873291866983256,0.602196817972289,0.7550060128757089,0.6498570108178719,0.002999014912984437,0.3754437639527831,0.2260194395362515,0.2973696398263849,-0.1967063775485456,0.214764653154305,-0.0389300076931304,0.592029247903024,-0.4603672655992538,0.09042460643973117,749.8534798534798,800.6227106227107,815.1282051282052,742.1978021978023,537.9120879120879,-0.477478,0.089417,0.891541,5.271149,-3.095398,-1.547699,1,1,1,1,1,80.000000
2020-01-09 00:54:51.248,0.9815658029456448,1.703098288828085,0.3692680703440227,0.8715294185719246,0.07258009968948229,0.8018790769655862,0.08873291866983256,0.602196817972289,0.7550060128757089,0.6498570108178719,0.002999014912984437,0.3754437639527831,0.2260194395362515,0.2973696398263849,-0.1967063775485456,0.214764653154305,-0.0389300076931304,0.592029247903024,-0.4603672655992538,0.09042460643973117,803.040293040293,822.7838827838829,822.3809523809524,799.4139194139194,965.8241758241759,-0.477478,0.089417,0.891541,5.271149,-3.095398,-1.547699,1,1,1,1,1,80.000000
2020-01-09 00:54:51.248,0.9815658029456448,1.703098288828085,0.3692680703440227,0.8715294185719246,0.07258009968948229,0.8018790769655862,0.08873291866983256,0.602196817972289,0.7550060128757089,0.6498570108178719,0.002999014912984437,0.3754437639527831,0.2260194395362515,0.2973696398263849,-0.1967063775485456,0.214764653154305,-0.0389300076931304,0.592029247903024,-0.4603672655992538,0.09042460643973117,798.6080586080586,816.7399267399268,821.5750915750916,794.981684981685,1208.388278388278,-0.477478,0.089417,0.891541,5.271149,-3.095398,-1.547699,1,1,1,1,1,80.000000
2020-01-09 00:54:51.248,0.9815658029456448,1.703098288828085,0.3692680703440227,0.8715294185719246,0.07258009968948229,0.8018790769655862,0.08873291866983256,0.602196817972289,0.7550060128757089,0.6498570108178719,0.002999014912984437,0.3754437639527831,0.2260194395362515,0.2973696398263849,-0.1967063775485456,0.214764653154305,-0.0389300076931304,0.592029247903024,-0.4603672655992538,0.09042460643973117,738.974358974359,806.2637362637363,812.7106227106227,730.5128205128206,891.2820512820513,-0.477478,0.089417,0.891541,5.271149,-3.095398,-1.547699,1,1,1,1,1,80.000000
2020-01-09 00:54:51.248,0.9815658029456448,1.703098288828085,0.3692680703440227,0.8715294185719246,0.07258009968948229,0.8018790769655862,0.08873291866983256,0.602196817972289,0.7550060128757089,0.6498570108178719,0.002999014912984437,0.3754437639527831,0.2260194395362515,0.2973696398263849,-0.1967063775485456,0.214764653154305,-0.0389300076931304,0.592029247903024,-0.4603672655992538,0.09042460643973117,739.3772893772893,800.2197802197802,814.3223443223443,726.8864468864469,585.8608058608058,-0.477478,0.089417,0.891541,5.271149,-3.095398,-1.547699,1,1,1,1,1,80.000000
2020-01-09 00:54:51.248,0.9815658029456448,1.703098288828085,0.3692680703440227,0.8715294185719246,0.07258009968948229,0.8018790769655862,0.08873291866983256,0.602196817972289,0.7550060128757089,0.6498570108178719,0.002999014912984437,0.3754437639527831,0.2260194395362515,0.2973696398263849,-0.1967063775485456,0.214764653154305,-0.0389300076931304,0.592029247903024,-0.4603672655992538,0.09042460643973117,789.3406593406594,815.934065934066,826.4102564102565,785.3113553113553,970.2564102564103,-0.477478,0.089417,0.891541,5.271149,-3.095398,-1.547699,1,1,1,1,1,80.000000
2020-01-09 00:54:51.249,0.9815658029456448,1.703098288828085,0.3692680703440227,0.8715294185719246,0.07258009968948229,0.8018790769655862,0.08873291866983256,0.602196817972289,0.7550060128757089,0.6498570108178719,0.002999014912984437,0.3754437639527831,0.2260194395362515,0.2973696398263849,-0.1967063775485456,0.214764653154305,-0.0389300076931304,0.592029247903024,-0.4603672655992538,0.09042460643973117,796.5934065934066,831.2454212454213,825.6043956043957,795.7875457875458,1267.619047619048,-0.477478,0.089417,0.891541,5.271149,-3.095398,-1.547699,1,1,1,1,1,80.000000
2020-01-09 00:54:51.249,0.9815658029456448,1.703098288828085,0.3692680703440227,0.8715294185719246,0.07258009968948229,0.8018790769655862,0.08873291866983256,0.602196817972289,0.7550060128757089,0.6498570108178719,0.002999014912984437,0.3754437639527831,0.2260194395362515,0.2973696398263849,-0.1967063775485456,0.214764653154305,-0.0389300076931304,0.592029247903024,-0.4603672655992538,0.09042460643973117,748.6446886446887,814.7252747252747,815.934065934066,743.8095238095239,797.8021978021978,-0.477478,0.089417,0.891541,5.271149,-3.095398,-1.547699,1,1,1,1,1,80.000000
2020-01-09 00:54:51.249,0.9815658029456448,1.703098288828085,0.3692680703440227,0.8715294185719246,0.07258009968948229,0.8018790769655862,0.08873291866983256,0.602196817972289,0.7550060128757089,0.6498570108178719,0.002999014912984437,0.3754437639527831,0.2260194395362515,0.2973696398263849,-0.1967063775485456,0.214764653154305,-0.0389300076931304,0.592029247903024,-0.4603672655992538,0.09042460643973117,731.7216117216118,808.6813186813187,818.3516483516484,726.4835164835165,438.7912087912088,-0.477478,0.089417,0.891541,5.271149,-3.095398,-1.547699,1,1,1,1,1,80.000000
2020-01-09 00:54:51.249,0.9815658029456448,1.703098288828085,0.3692680703440227,0.8715294185719246,0.07258009968948229,0.8018790769655862,0.08873291866983256,0.602196817972289,0.7550060128757089,0.6498570108178719,0.002999014912984437,0.3754437639527831,0.2260194395362515,0.2973696398263849,-0.1967063775485456,0.214764653154305,-0.0389300076931304,0.592029247903024,-0.4603672655992538,0.09042460643973117,782.4908424908425,821.5750915750916,820.3663003663004,781.2820512820513,792.1611721611722,-0.477478,0.089417,0.891541,5.271149,-3.095398,-1.547699,1,1,1,1,1,80.000000
2020-01-09 00:54:51.249,0.9815658029456448,1.680803309172944,0.365288086182859,0.8715294185719246,0.07258009968948229,0.7809968202657724,0.04419809067538277,0.602196817972289,0.7550060128757089,0.6498570108178719,-0.03573220496099619,0.3754437639527831,0.2260194395362515,0.2848566500624308,-0.2125796484789194,0.214764653154305,-0.0389300076931304,0.5813710525064714,-0.4565624482917071,0.09042460643973117,815.1282051282052,838.0952380952381,824.7985347985348,816.7399267399268,1266.007326007326,-0.477478,0.089417,0.891541,5.271149,-3.095398,-1.547699,1,1,1,1,1,80.000000
2020-01-09 00:54:51.250,0.9815658029456448,1.680803309172944,0.365288086182859,0.8715294185719246,0.07258009968948229,0.7809968202657724,0.04419809067538277,0.602196817972289,0.7550060128757089,0.6498570108178719,-0.03573220496099619,0.3754437639527831,0.2260194395362515,0.2848566500624308,-0.2125796484789194,0.214764653154305,-0.0389300076931304,0.5813710525064714,-0.4565624482917071,0.09042460643973117,772.014652014652,840.9157509157509,822.3809523809524,762.3443223443223,1012.564102564103,-0.477478,0.089417,0.891541,5.271149,-3.095398,-1.547699,1,1,1,1,1,80.000000
2020-01-09 00:54:51.250,0.9815658029456448,1.680803309172944,0.365288086182859,0.8715294185719246,0.07258009968948229,0.7809968202657724,0.04419809067538277,0.602196817972289,0.7550060128757089,0.6498570108178719,-0.03573220496099619,0.3754437639527831,0.2260194395362515,0.2848566500624308,-0.2125796484789194,0.214764653154305,-0.0389300076931304,0.5813710525064714,-0.4565624482917071,0.09042460643973117,731.7216117216118,818.7545787545788,811.0989010989011,718.8278388278388,561.6849816849817,-0.477478,0.089417,0.891541,5.271149,-3.095398,-1.547699,1,1,1,1,1,80.000000
2020-01-09 00:54:51.251,0.9815658029456448,1.680803309172944,0.365288086182859,0.8715294185719246,0.07258009968948229,0.7809968202657724,0.04419809067538277,0.602196817972289,0.7550060128757089,0.6498570108178719,-0.03573220496099619,0.3754437639527831,0.2260194395362515,0.2848566500624308,-0.2125796484789194,0.214764653154305,-0.0389300076931304,0.5813710525064714,-0.4565624482917071,0.09042460643973117,761.5384615384615,828.4249084249085,815.5311355311355,761.941391941392,547.985347985348,-0.477478,0.089417,0.891541,5.271149,-3.095398,-1.547699,1,1,1,1,1,80.000000
2020-01-09 00:54:51.251,0.9815658029456448,1.680803309172944,0.365288086182859,0.8715294185719246,0.07258009968948229,0.7809968202657724,0.04419809067538277,0.602196817972289,0.7550060128757089,0.6498570108178719,-0.03573220496099619,0.3754437639527831,0.2260194395362515,0.2848566500624308,-0.2125796484789194,0.214764653154305,-0.0389300076931304,0.5813710525064714,-0.4565624482917071,0.09042460643973117,808.6813186813187,847.3626373626374,825.2014652014652,806.6666666666667,936.4102564102565,-0.477478,0.089417,0.891541,5.271149,-3.095398,-1.547699,1,1,1,1,1,80.000000
2020-01-09 00:54:51.251,0.9815658029456448,1.680803309172944,0.365288086182859,0.8715294185719246,0.07258009968948229,0.7809968202657724,0.04419809067538277,0.602196817972289,0.7550060128757089,0.6498570108178719,-0.03573220496099619,0.3754437639527831,0.2260194395362515,0.2848566500624308,-0.2125796484789194,0.214764653154305,-0.0389300076931304,0.5813710525064714,-0.4565624482917071,0.09042460643973117,783.2967032967033,832.4542124542124,823.1868131868132,768.7912087912088,1023.846153846154,-0.477478,0.089417,0.891541,5.271149,-3.095398,-1.547699,1,1,1,1,1,80.000000
2020-01-09 00:54:51.251,0.9815658029456448,1.680803309172944,0.365288086182859,0.8715294185719246,0.07258009968948229,0.7809968202657724,0.04419809067538277,0.602196817972289,0.7550060128757089,0.6498570108178719,-0.03573220496099619,0.3754437639527831,0.2260194395362515,0.2848566500624308,-0.2125796484789194,0.214764653154305,-0.0389300076931304,0.5813710525064714,-0.4565624482917071,0.09042460643973117,730.5128205128206,806.6666666666667,816.3369963369963,717.2161172161173,631.7948717948718,-0.477478,0.089417,0.891541,5.271149,-3.095398,-1.547699,1,1,1,1,1,80.000000
2020-01-09 00:54:51.251,0.9815658029456448,1.680803309172944,0.365288086182859,0.8715294185719246,0.07258009968948229,0.7809968202657724,0.04419809067538277,0.602196817972289,0.7550060128757089,0.6498570108178719,-0.03573220496099619,0.3754437639527831,0.2260194395362515,0.2848566500624308,-0.2125796484789194,0.214764653154305,-0.0389300076931304,0.5813710525064714,-0.4565624482917071,0.09042460643973117,758.3150183150184,807.8754578754579,819.1575091575091,743.8095238095239,739.3772893772893,-0.477478,0.089417,0.891541,5.271149,-3.095398,-1.547699,1,1,1,1,1,80.000000
2020-01-09 00:54:51.251,0.9815658029456448,1.680803309172944,0.365288086182859,0.8715294185719246,0.07258009968948229,0.7809968202657724,0.04419809067538277,0.602196817972289,0.7550060128757089,0.6498570108178719,-0.03573220496099619,0.3754437639527831,0.2260194395362515,0.2848566500624308,-0.2125796484789194,0.214764653154305,-0.0389300076931304,0.5813710525064714,-0.4565624482917071,0.09042460643973117,807.4725274725275,840.5128205128206,828.021978021978,796.5934065934066,1141.098901098901,-0.477478,0.089417,0.891541,5.271149,-3.095398,-1.547699,1,1,1,1,1,80.000000
2020-01-09 00:54:51.252,0.9815658029456448,1.680803309172944,0.365288086182859,0.8715294185719246,0.07258009968948229,0.7809968202657724,0.04419809067538277,0.602196817972289,0.7550060128757089,0.6498570108178719,-0.03573220496099619,0.3754437639527831,0.2260194395362515,0.2848566500624308,-0.2125796484789194,0.214764653154305,-0.0389300076931304,0.5813710525064714,-0.4565624482917071,0.09042460643973117,795.3846153846154,857.4358974358975,828.4249084249085,786.1172161172161,1112.490842490843,-0.477478,0.089417,0.891541,5.271149,-3.095398,-1.547699,1,1,1,1,1,80.000000
2020-01-09 00:54:51.252,0.9815658029456448,1.680803309172944,0.365288086182859,0.8715294185719246,0.07258009968948229,0.7809968202657724,0.04419809067538277,0.602196817972289,0.7550060128757089,0.6498570108178719,-0.03573220496099619,0.3754437639527831,0.2260194395362515,0.2848566500624308,-0.2125796484789194,0.214764653154305,-0.0389300076931304,0.5813710525064714,-0.4565624482917071,0.09042460643973117,743.8095238095239,828.8278388278388,819.1575091575091,729.7069597069598,780.8791208791209,-0.477478,0.089417,0.891541,5.271149,-3.095398,-1.547699,1,1,1,1,1,80.000000
2020-01-09 00:54:51.252,0.9815658029456448,1.680803309172944,0.365288086182859,0.8715294185719246,0.07258009968948229,0.7809968202657724,0.04419809067538277,0.602196817972289,0.7550060128757089,0.6498570108178719,-0.03573220496099619,0.3754437639527831,0.2260194395362515,0.2848566500624308,-0.2125796484789194,0.214764653154305,-0.0389300076931304,0.5813710525064714,-0.4565624482917071,0.09042460643973117,739.7802197802198,815.5311355311355,815.5311355311355,724.8717948717949,542.7472527472528,-0.477478,0.089417,0.891541,5.271149,-3.095398,-1.547699,1,1,1,1,1,80.000000
2020-01-09 00:54:51.252,0.9815658029456448,1.680803309172944,0.365288086182859,0.8715294185719246,0.07258009968948229,0.7809968202657724,0.04419809067538277,0.602196817972289,0.7550060128757089,0.6498570108178719,-0.03573220496099619,0.3754437639527831,0.2260194395362515,0.2848566500624308,-0.2125796484789194,0.214764653154305,-0.0389300076931304,0.5813710525064714,-0.4565624482917071,0.09042460643973117,790.5494505494506,837.6923076923077,820.3663003663004,783.2967032967033,657.985347985348,-0.477478,0.089417,0.891541,5.271149,-3.095398,-1.547699,1,1,1,1,1,80.000000
2020-01-09 00:54:51.252,0.9815658029456448,1.680803309172944,0.365288086182859,0.8715294185719246,0.07258009968948229,0.7809968202657724,0.04419809067538277,0.602196817972289,0.7550060128757089,0.6498570108178719,-0.03573220496099619,0.3754437639527831,0.2260194395362515,0.2848566500624308,-0.2125796484789194,0.214764653154305,-0.0389300076931304,0.5813710525064714,-0.4565624482917071,0.09042460643973117,802.6373626373627,849.3772893772895,825.2014652014652,804.2490842490843,846.5567765567765,-0.473877,0.087585,0.882751,4.702911,-3.357086,-1.786957,1,1,1,1,1,80.000000
2020-01-09 00:54:51.252,0.9815658029456448,1.680803309172944,0.365288086182859,0.8715294185719246,0.07258009968948229,0.7809968202657724,0.04419809067538277,0.602196817972289,0.7550060128757089,0.6498570108178719,-0.03573220496099619,0.3754437639527831,0.2260194395362515,0.2848566500624308,-0.2125796484789194,0.214764653154305,-0.0389300076931304,0.5813710525064714,-0.4565624482917071,0.09042460643973117,753.4798534798535,815.5311355311355,813.5164835164835,751.4652014652015,667.6556776556777,-0.473877,0.087585,0.882751,4.702911,-3.357086,-1.786957,1,1,1,1,1,80.000000
2020-01-09 00:54:51.253,0.9815658029456448,1.680803309172944,0.365288086182859,0.8715294185719246,0.07258009968948229,0.7809968202657724,0.04419809067538277,0.602196817972289,0.7550060128757089,0.6498570108178719,-0.03573220496099619,0.3754437639527831,0.2260194395362515,0.2848566500624308,-0.2125796484789194,0.214764653154305,-0.0389300076931304,0.5813710525064714,-0.4565624482917071,0.09042460643973117,725.2747252747253,795.7875457875458,806.2637362637363,720.0366300366301,490.3663003663004,-0.473877,0.087585,0.882751,4.702911,-3.357086,-1.786957,1,1,1,1,1,80.000000
2020-01-09 00:54:51.253,0.9815658029456448,1.680803309172944,0.365288086182859,0.8715294185719246,0.07258009968948229,0.7809968202657724,0.04419809067538277,0.602196817972289,0.7550060128757089,0.6498570108178719,-0.03573220496099619,0.3754437639527831,0.2260194395362515,0.2848566500624308,-0.2125796484789194,0.214764653154305,-0.0389300076931304,0.5813710525064714,-0.4565624482917071,0.09042460643973117,764.7619047619048,816.3369963369963,817.1428571428571,767.1794871794872,700.6959706959707,-0.473877,0.087585,0.882751,4.702911,-3.357086,-1.786957,1,1,1,1,1,80.000000
2020-01-09 00:54:51.253,0.9815658029456448,1.680803309172944,0.365288086182859,0.8715294185719246,0.07258009968948229,0.7809968202657724,0.04419809067538277,0.602196817972289,0.7550060128757089,0.6498570108178719,-0.03573220496099619,0.3754437639527831,0.2260194395362515,0.2848566500624308,-0.2125796484789194,0.214764653154305,-0.0389300076931304,0.5813710525064714,-0.4565624482917071,0.09042460643973117,803.040293040293,833.2600732600733,826.8131868131868,812.3076923076924,1027.069597069597,-0.473877,0.087585,0.882751,4.702911,-3.357086,-1.786957,1,1,1,1,1,80.000000
2020-01-09 00:54:51.253,0.9815658029456448,1.680803309172944,0.365288086182859,0.8715294185719246,0.07258009968948229,0.7809968202657724,0.04419809067538277,0.602196817972289,0.7550060128757089,0.6498570108178719,-0.03573220496099619,0.3754437639527831,0.2260194395362515,0.2848566500624308,-0.2125796484789194,0.214764653154305,-0.0389300076931304,0.5813710525064714,-0.4565624482917071,0.09042460643973117,766.7765567765568,817.948717948718,820.3663003663004,773.6263736263736,938.8278388278388,-0.473877,0.087585,0.882751,4.702911,-3.357086,-1.786957,1,1,1,1,1,80.000000
2020-01-09 00:54:51.253,0.9815658029456448,1.680803309172944,0.365288086182859,0.8715294185719246,0.07258009968948229,0.7809968202657724,0.04419809067538277,0.602196817972289,0.7550060128757089,0.6498570108178719,-0.03573220496099619,0.3754437639527831,0.2260194395362515,0.2848566500624308,-0.2125796484789194,0.214764653154305,-0.0389300076931304,0.5813710525064714,-0.4565624482917071,0.09042460643973117,723.6630036630037,796.5934065934066,811.0989010989011,728.4981684981685,651.941391941392,-0.473877,0.087585,0.882751,4.702911,-3.357086,-1.786957,1,1,1,1,1,80.000000
2020-01-09 00:54:51.253,0.9815658029456448,1.680803309172944,0.365288086182859,0.8715294185719246,0.07258009968948229,0.7809968202657724,0.04419809067538277,0.602196817972289,0.7550060128757089,0.6498570108178719,-0.03573220496099619,0.3754437639527831,0.2260194395362515,0.2848566500624308,-0.2125796484789194,0.214764653154305,-0.0389300076931304,0.5813710525064714,-0.4565624482917071,0.09042460643973117,754.6886446886447,808.2783882783883,817.5457875457876,760.7326007326008,763.5531135531136,-0.473877,0.087585,0.882751,4.702911,-3.357086,-1.786957,1,1,1,1,1,80.000000
2020-01-09 00:54:51.253,0.9815658029456448,1.680803309172944,0.365288086182859,0.8715294185719246,0.07258009968948229,0.7809968202657724,0.04419809067538277,0.602196817972289,0.7550060128757089,0.6498570108178719,-0.03573220496099619,0.3754437639527831,0.2260194395362515,0.2848566500624308,-0.2125796484789194,0.214764653154305,-0.0389300076931304,0.5813710525064714,-0.4565624482917071,0.09042460643973117,799.8168498168499,838.4981684981685,827.6190476190476,805.4578754578755,1052.454212454212,-0.473877,0.087585,0.882751,4.702911,-3.357086,-1.786957,1,1,1,1,1,80.000000
2020-01-09 00:54:51.254,0.9815658029456448,1.680803309172944,0.365288086182859,0.8715294185719246,0.07258009968948229,0.7809968202657724,0.04419809067538277,0.602196817972289,0.7550060128757089,0.6498570108178719,-0.03573220496099619,0.3754437639527831,0.2260194395362515,0.2848566500624308,-0.2125796484789194,0.214764653154305,-0.0389300076931304,0.5813710525064714,-0.4565624482917071,0.09042460643973117,780.4761904761905,820.7692307692308,820.3663003663004,790.1465201465202,1177.765567765568,-0.473877,0.087585,0.882751,4.702911,-3.357086,-1.786957,1,1,1,1,1,80.000000
2020-01-09 00:54:51.254,0.9815658029456448,1.680803309172944,0.365288086182859,0.8715294185719246,0.07258009968948229,0.7809968202657724,0.04419809067538277,0.602196817972289,0.7550060128757089,0.6498570108178719,-0.03573220496099619,0.3754437639527831,0.2260194395362515,0.2848566500624308,-0.2125796484789194,0.214764653154305,-0.0389300076931304,0.5813710525064714,-0.4565624482917071,0.09042460643973117,727.6923076923077,781.2820512820513,810.2930402930403,743.8095238095239,932.7838827838829,-0.473877,0.087585,0.882751,4.702911,-3.357086,-1.786957,1,1,1,1,1,80.000000
2020-01-09 00:54:51.254,0.9815658029456448,1.680803309172944,0.365288086182859,0.8715294185719246,0.07258009968948229,0.7809968202657724,0.04419809067538277,0.602196817972289,0.7550060128757089,0.6498570108178719,-0.03573220496099619,0.3754437639527831,0.2260194395362515,0.2848566500624308,-0.2125796484789194,0.214764653154305,-0.0389300076931304,0.5813710525064714,-0.4565624482917071,0.09042460643973117,734.5421245421246,805.4578754578755,818.3516483516484,747.032967032967,595.5311355311355,-0.473877,0.087585,0.882751,4.702911,-3.357086,-1.786957,1,1,1,1,1,80.000000
2020-01-09 00:54:51.254,0.9815658029456448,1.680803309172944,0.365288086182859,0.8715294185719246,0.07258009968948229,0.7809968202657724,0.04419809067538277,0.602196817972289,0.7550060128757089,0.6498570108178719,-0.03573220496099619,0.3754437639527831,0.2260194395362515,0.2848566500624308,-0.2125796484789194,0.214764653154305,-0.0389300076931304,0.5813710525064714,-0.4565624482917071,0.09042460643973117,786.9230769230769,838.901098901099,828.8278388278388,793.3699633699634,882.014652014652,-0.474243,0.088745,0.880615,4.785156,-2.901001,-1.547699,1,1,1,1,1,80.000000
2020-01-09 00:54:51.254,0.9815658029456448,1.662186712260976,0.3698960017864246,0.8715294185719246,0.07258009968948229,0.7685435365089162,0.01615807546226539,0.602196817972289,0.7550060128757089,0.6498570108178719,-0.03473842813588171,0.3754437639527831,0.2260194395362515,0.2779716278677707,-0.2222439933982814,0.214764653154305,-0.0389300076931304,0.5721196240544225,-0.4557038194173624,0.09042460643973117,790.1465201465202,837.2893772893773,825.6043956043957,794.1758241758242,1155.201465201465,-0.474243,0.088745,0.880615,4.785156,-2.901001,-1.547699,1,1,1,1,1,80.000000
2020-01-09 00:54:51.255,0.9815658029456448,1.662186712260976,0.3698960017864246,0.8715294185719246,0.07258009968948229,0.7685435365089162,0.01615807546226539,0.602196817972289,0.7550060128757089,0.6498570108178719,-0.03473842813588171,0.3754437639527831,0.2260194395362515,0.2779716278677707,-0.2222439933982814,0.214764653154305,-0.0389300076931304,0.5721196240544225,-0.4557038194173624,0.09042460643973117,736.5567765567765,802.6373626373627,813.1135531135532,734.5421245421246,815.5311355311355,-0.474243,0.088745,0.880615,4.785156,-2.901001,-1.547699,1,1,1,1,1,80.000000
2020-01-09 00:54:51.255,0.9815658029456448,1.662186712260976,0.3698960017864246,0.8715294185719246,0.07258009968948229,0.7685435365089162,0.01615807546226539,0.602196817972289,0.7550060128757089,0.6498570108178719,-0.03473842813588171,0.3754437639527831,0.2260194395362515,0.2779716278677707,-0.2222439933982814,0.214764653154305,-0.0389300076931304,0.5721196240544225,-0.4557038194173624,0.09042460643973117,725.6776556776557,792.5641025641025,813.1135531135532,718.021978021978,456.5201465201465,-0.474243,0.088745,0.880615,4.785156,-2.901001,-1.547699,1,1,1,1,1,80.000000
2020-01-09 00:54:51.255,0.9815658029456448,1.662186712260976,0.3698960017864246,0.8715294185719246,0.07258009968948229,0.7685435365089162,0.01615807546226539,0.602196817972289,0.7550060128757089,0.6498570108178719,-0.03473842813588171,0.3754437639527831,0.2260194395362515,0.2779716278677707,-0.2222439933982814,0.214764653154305,-0.0389300076931304,0.5721196240544225,-0.4557038194173624,0.09042460643973117,768.7912087912088,821.5750915750916,823.1868131868132,779.2673992673992,753.4798534798535,-0.474243,0.088745,0.880615,4.785156,-2.901001,-1.547699,1,1,1,1,1,80.000000
2020-01-09 00:54:51.255,0.9815658029456448,1.662186712260976,0.3698960017864246,0.8715294185719246,0.07258009968948229,0.7685435365089162,0.01615807546226539,0.602196817972289,0.7550060128757089,0.6498570108178719,-0.03473842813588171,0.3754437639527831,0.2260194395362515,0.2779716278677707,-0.2222439933982814,0.214764653154305,-0.0389300076931304,0.5721196240544225,-0.4557038194173624,0.09042460643973117,783.2967032967033,830.4395604395604,823.992673992674,810.2930402930403,1222.087912087912,-0.474243,0.088745,0.880615,4.785156,-2.901001,-1.547699,1,1,1,1,1,80.000000
2020-01-09 00:54:51.255,0.9815658029456448,1.662186712260976,0.3698960017864246,0.8715294185719246,0.07258009968948229,0.7685435365089162,0.01615807546226539,0.602196817972289,0.7550060128757089,0.6498570108178719,-0.03473842813588171,0.3754437639527831,0.2260194395362515,0.2779716278677707,-0.2222439933982814,0.214764653154305,-0.0389300076931304,0.5721196240544225,-0.4557038194173624,0.09042460643973117,741.7948717948718,811.9047619047619,816.3369963369963,760.7326007326008,863.0769230769231,-0.474243,0.088745,0.880615,4.785156,-2.901001,-1.547699,1,1,1,1,1,80.000000
2020-01-09 00:54:51.256,0.9815658029456448,1.662186712260976,0.3698960017864246,0.8715294185719246,0.07258009968948229,0.7685435365089162,0.01615807546226539,0.602196817972289,0.7550060128757089,0.6498570108178719,-0.03473842813588171,0.3754437639527831,0.2260194395362515,0.2779716278677707,-0.2222439933982814,0.214764653154305,-0.0389300076931304,0.5721196240544225,-0.4557038194173624,0.09042460643973117,711.1721611721612,805.8608058608058,813.5164835164835,723.6630036630037,464.5787545787546,-0.474243,0.088745,0.880615,4.785156,-2.901001,-1.547699,1,1,1,1,1,80.000000
2020-01-09 00:54:51.256,0.9815658029456448,1.662186712260976,0.3698960017864246,0.8715294185719246,0.07258009968948229,0.7685435365089162,0.01615807546226539,0.602196817972289,0.7550060128757089,0.6498570108178719,-0.03473842813588171,0.3754437639527831,0.2260194395362515,0.2779716278677707,-0.2222439933982814,0.214764653154305,-0.0389300076931304,0.5721196240544225,-0.4557038194173624,0.09042460643973117,750.2564102564103,830.0366300366301,818.7545787545788,765.5677655677656,728.901098901099,-0.474243,0.088745,0.880615,4.785156,-2.901001,-1.547699,1,1,1,1,1,80.000000
2020-01-09 00:54:51.256,0.9815658029456448,1.662186712260976,0.3698960017864246,0.8715294185719246,0.07258009968948229,0.7685435365089162,0.01615807546226539,0.602196817972289,0.7550060128757089,0.6498570108178719,-0.03473842813588171,0.3754437639527831,0.2260194395362515,0.2779716278677707,-0.2222439933982814,0.214764653154305,-0.0389300076931304,0.5721196240544225,-0.4557038194173624,0.09042460643973117,797.8021978021978,848.5714285714286,823.1868131868132,813.1135531135532,1041.575091575092,-0.474243,0.088745,0.880615,4.785156,-2.901001,-1.547699,1,1,1,1,1,80.000000
2020-01-09 00:54:51.256,0.9815658029456448,1.662186712260976,0.3698960017864246,0.8715294185719246,0.07258009968948229,0.7685435365089162,0.01615807546226539,0.602196817972289,0.7550060128757089,0.6498570108178719,-0.03473842813588171,0.3754437639527831,0.2260194395362515,0.2779716278677707,-0.2222439933982814,0.214764653154305,-0.0389300076931304,0.5721196240544225,-0.4557038194173624,0.09042460643973117,768.3882783882784,836.0805860805862,819.96336996337,777.6556776556777,998.8644688644689,-0.474243,0.088745,0.880615,4.785156,-2.901001,-1.547699,1,1,1,1,1,80.000000
2020-01-09 00:54:51.256,0.9815658029456448,1.662186712260976,0.3698960017864246,0.8715294185719246,0.07258009968948229,0.7685435365089162,0.01615807546226539,0.602196817972289,0.7550060128757089,0.6498570108178719,-0.03473842813588171,0.3754437639527831,0.2260194395362515,0.2779716278677707,-0.2222439933982814,0.214764653154305,-0.0389300076931304,0.5721196240544225,-0.4557038194173624,0.09042460643973117,716.007326007326,813.1135531135532,810.2930402930403,720.0366300366301,571.3553113553114,-0.474243,0.088745,0.880615,4.785156,-2.901001,-1.547699,1,1,1,1,1,80.000000
2020-01-09 00:54:51.256,0.9815658029456448,1.662186712260976,0.3698960017864246,0.8715294185719246,0.07258009968948229,0.7685435365089162,0.01615807546226539,0.602196817972289,0.7550060128757089,0.6498570108178719,-0.03473842813588171,0.3754437639527831,0.2260194395362515,0.2779716278677707,-0.2222439933982814,0.214764653154305,-0.0389300076931304,0.5721196240544225,-0.4557038194173624,0.09042460643973117,747.032967032967,817.948717948718,810.6959706959707,746.2271062271062,519.3772893772893,-0.477783,0.090027,0.888306,4.927216,-3.237457,-1.308441,1,1,1,1,1,80.000000
2020-01-09 00:54:51.256,0.9815658029456448,1.662186712260976,0.3698960017864246,0.8715294185719246,0.07258009968948229,0.7685435365089162,0.01615807546226539,0.602196817972289,0.7550060128757089,0.6498570108178719,-0.03473842813588171,0.3754437639527831,0.2260194395362515,0.2779716278677707,-0.2222439933982814,0.214764653154305,-0.0389300076931304,0.5721196240544225,-0.4557038194173624,0.09042460643973117,802.2344322344322,825.2014652014652,818.3516483516484,809.0842490842491,1121.355311355311,-0.477783,0.090027,0.888306,4.927216,-3.237457,-1.308441,1,1,1,1,1,80.000000
2020-01-09 00:54:51.256,0.9815658029456448,1.662186712260976,0.3698960017864246,0.8715294185719246,0.07258009968948229,0.7685435365089162,0.01615807546226539,0.602196817972289,0.7550060128757089,0.6498570108178719,-0.03473842813588171,0.3754437639527831,0.2260194395362515,0.2779716278677707,-0.2222439933982814,0.214764653154305,-0.0389300076931304,0.5721196240544225,-0.4557038194173624,0.09042460643973117,780.0732600732601,824.7985347985348,817.5457875457876,785.7142857142858,1232.161172161172,-0.477783,0.090027,0.888306,4.927216,-3.237457,-1.308441,1,1,1,1,1,80.000000
2020-01-09 00:54:51.257,0.9815658029456448,1.662186712260976,0.3698960017864246,0.8715294185719246,0.07258009968948229,0.7685435365089162,0.01615807546226539,0.602196817972289,0.7550060128757089,0.6498570108178719,-0.03473842813588171,0.3754437639527831,0.2260194395362515,0.2779716278677707,-0.2222439933982814,0.214764653154305,-0.0389300076931304,0.5721196240544225,-0.4557038194173624,0.09042460643973117,725.6776556776557,811.9047619047619,811.0989010989011,717.6190476190476,780.8791208791209,-0.477783,0.090027,0.888306,4.927216,-3.237457,-1.308441,1,1,1,1,1,80.000000
2020-01-09 00:54:51.257,0.9815658029456448,1.662186712260976,0.3698960017864246,0.8715294185719246,0.07258009968948229,0.7685435365089162,0.01615807546226539,0.602196817972289,0.7550060128757089,0.6498570108178719,-0.03473842813588171,0.3754437639527831,0.2260194395362515,0.2779716278677707,-0.2222439933982814,0.214764653154305,-0.0389300076931304,0.5721196240544225,-0.4557038194173624,0.09042460643973117,737.3626373626374,807.4725274725275,812.3076923076924,730.1098901098901,550.8058608058608,-0.477783,0.090027,0.888306,4.927216,-3.237457,-1.308441,1,1,1,1,1,80.000000
2020-01-09 00:54:51.257,0.9815658029456448,1.662186712260976,0.3698960017864246,0.8715294185719246,0.07258009968948229,0.7685435365089162,0.01615807546226539,0.602196817972289,0.7550060128757089,0.6498570108178719,-0.03473842813588171,0.3754437639527831,0.2260194395362515,0.2779716278677707,-0.2222439933982814,0.214764653154305,-0.0389300076931304,0.5721196240544225,-0.4557038194173624,0.09042460643973117,798.2051282051282,831.6483516483516,823.1868131868132,792.5641025641025,907.8021978021978,-0.477783,0.090027,0.888306,4.927216,-3.237457,-1.308441,1,1,1,1,1,80.000000
2020-01-09 00:54:51.257,0.9815658029456448,1.662186712260976,0.3698960017864246,0.8715294185719246,0.07258009968948229,0.7685435365089162,0.01615807546226539,0.602196817972289,0.7550060128757089,0.6498570108178719,-0.03473842813588171,0.3754437639527831,0.2260194395362515,0.2779716278677707,-0.2222439933982814,0.214764653154305,-0.0389300076931304,0.5721196240544225,-0.4557038194173624,0.09042460643973117,803.4432234432235,831.6483516483516,820.7692307692308,793.7728937728938,1240.21978021978,-0.477783,0.090027,0.888306,4.927216,-3.237457,-1.308441,1,1,1,1,1,80.000000
2020-01-09 00:54:51.257,0.9815658029456448,1.662186712260976,0.3698960017864246,0.8715294185719246,0.07258009968948229,0.7685435365089162,0.01615807546226539,0.602196817972289,0.7550060128757089,0.6498570108178719,-0.03473842813588171,0.3754437639527831,0.2260194395362515,0.2779716278677707,-0.2222439933982814,0.214764653154305,-0.0389300076931304,0.5721196240544225,-0.4557038194173624,0.09042460643973117,742.1978021978023,809.4871794871796,808.2783882783883,727.2893772893773,765.5677655677656,-0.477783,0.090027,0.888306,4.927216,-3.237457,-1.308441,1,1,1,1,1,80.000000
2020-01-09 00:54:51.257,0.9815658029456448,1.662186712260976,0.3698960017864246,0.8715294185719246,0.07258009968948229,0.7685435365089162,0.01615807546226539,0.602196817972289,0.7550060128757089,0.6498570108178719,-0.03473842813588171,0.3754437639527831,0.2260194395362515,0.2779716278677707,-0.2222439933982814,0.214764653154305,-0.0389300076931304,0.5721196240544225,-0.4557038194173624,0.09042460643973117,728.4981684981685,790.5494505494506,807.0695970695971,709.5604395604396,562.4908424908425,-0.477783,0.090027,0.888306,4.927216,-3.237457,-1.308441,1,1,1,1,1,80.000000
2020-01-09 00:54:51.257,0.9815658029456448,1.662186712260976,0.3698960017864246,0.8715294185719246,0.07258009968948229,0.7685435365089162,0.01615807546226539,0.602196817972289,0.7550060128757089,0.6498570108178719,-0.03473842813588171,0.3754437639527831,0.2260194395362515,0.2779716278677707,-0.2222439933982814,0.214764653154305,-0.0389300076931304,0.5721196240544225,-0.4557038194173624,0.09042460643973117,783.2967032967033,805.4578754578755,818.3516483516484,766.3736263736264,1070.18315018315,-0.477783,0.090027,0.888306,4.927216,-3.237457,-1.308441,1,1,1,1,1,80.000000
2020-01-09 00:54:51.258,0.9815658029456448,1.662186712260976,0.3698960017864246,0.8715294185719246,0.07258009968948229,0.7685435365089162,0.01615807546226539,0.602196817972289,0.7550060128757089,0.6498570108178719,-0.03473842813588171,0.3754437639527831,0.2260194395362515,0.2779716278677707,-0.2222439933982814,0.214764653154305,-0.0389300076931304,0.5721196240544225,-0.4557038194173624,0.09042460643973117,806.6666666666667,838.0952380952381,824.3956043956044,784.1025641025641,1231.758241758242,-0.477783,0.090027,0.888306,4.927216,-3.237457,-1.308441,1,1,1,1,1,80.000000
2020-01-09 00:54:51.258,0.9815658029456448,1.662186712260976,0.3698960017864246,0.8715294185719246,0.07258009968948229,0.7685435365089162,0.01615807546226539,0.602196817972289,0.7550060128757089,0.6498570108178719,-0.03473842813588171,0.3754437639527831,0.2260194395362515,0.2779716278677707,-0.2222439933982814,0.214764653154305,-0.0389300076931304,0.5721196240544225,-0.4557038194173624,0.09042460643973117,759.92673992674,818.7545787545788,817.948717948718,734.9450549450549,872.3443223443223,-0.477783,0.090027,0.888306,4.927216,-3.237457,-1.308441,1,1,1,1,1,80.000000
2020-01-09 00:54:51.258,0.9815658029456448,1.662186712260976,0.3698960017864246,0.8715294185719246,0.07258009968948229,0.7685435365089162,0.01615807546226539,0.602196817972289,0.7550060128757089,0.6498570108178719,-0.03473842813588171,0.3754437639527831,0.2260194395362515,0.2779716278677707,-0.2222439933982814,0.214764653154305,-0.0389300076931304,0.5721196240544225,-0.4557038194173624,0.09042460643973117,720.8424908424909,784.9084249084249,812.7106227106227,701.9047619047619,469.4139194139194,-0.473572,0.086182,0.883179,4.381409,-3.132782,-2.512207,1,1,1,1,1,80.000000
2020-01-09 00:54:51.258,0.9815658029456448,1.662186712260976,0.3698960017864246,0.8715294185719246,0.07258009968948229,0.7685435365089162,0.01615807546226539,0.602196817972289,0.7550060128757089,0.6498570108178719,-0.03473842813588171,0.3754437639527831,0.2260194395362515,0.2779716278677707,-0.2222439933982814,0.214764653154305,-0.0389300076931304,0.5721196240544225,-0.4557038194173624,0.09042460643973117,753.8827838827839,795.7875457875458,822.3809523809524,747.4358974358975,560.8791208791209,-0.473572,0.086182,0.883179,4.381409,-3.132782,-2.512207,1,1,1,1,1,80.000000
2020-01-09 00:54:51.258,0.9815658029456448,1.662186712260976,0.3698960017864246,0.8715294185719246,0.07258009968948229,0.7685435365089162,0.01615807546226539,0.602196817972289,0.7550060128757089,0.6498570108178719,-0.03473842813588171,0.3754437639527831,0.2260194395362515,0.2779716278677707,-0.2222439933982814,0.214764653154305,-0.0389300076931304,0.5721196240544225,-0.4557038194173624,0.09042460643973117,796.996336996337,824.3956043956044,832.4542124542124,795.3846153846154,931.5750915750916,-0.473572,0.086182,0.883179,4.381409,-3.132782,-2.512207,1,1,1,1,1,80.000000
2020-01-09 00:54:51.258,0.913720437058669,1.651813191482063,0.370749620327435,0.8473049704527578,0.08809274006383933,0.779220643612489,-0.002171199186348357,0.5594614555447781,0.7754556750607964,0.6498570108178719,-0.01927394692348201,0.2934352801099605,0.2107468923267496,0.2818664766551152,-0.2247363310628931,0.2252334742710181,-0.02412325265329149,0.5560085816683034,-0.4590076314873656,0.09060859561043998,774.0293040293041,810.2930402930403,827.2161172161173,763.1501831501831,956.1538461538462,-0.473572,0.086182,0.883179,4.381409,-3.132782,-2.512207,1,1,1,1,1,80.000000
